# File created by shivutils (I.Shivvers)
# Blotched regions marked with a #.
# wl(A)   flm    er(optional)
3440.00   0.74128179
3442.00   0.41800023
3444.00   0.80803156
3446.00   0.36364800
3448.00   0.53424942
3450.00   0.46732474
3452.00   1.04341552
3454.00   0.73962490
3456.00   0.88728091
3458.00   0.91781546
3460.00   0.80807043
3462.00   0.46607904
3464.00   0.57944465
3466.00   0.65567111
3468.00   0.92282335
3470.00   0.93939073
3472.00   0.50892945
3474.00   0.80227439
3476.00   0.66141236
3478.00   0.91496394
3480.00   0.69727464
3482.00   0.76430030
3484.00   0.72702519
3486.00   0.82917898
3488.00   0.96170470
3490.00   0.45922073
3492.00   0.57867276
3494.00   0.50092090
3496.00   0.53044193
3498.00   0.46044611
3500.00   0.37755101
3502.00   0.48273434
3504.00   0.48211376
3506.00   0.65333724
3508.00   0.29916354
3510.00   0.28156654
3512.00   0.63156444
3514.00   0.51395165
3516.00   0.57089262
3518.00   0.85968577
3520.00   0.61582957
3522.00   0.60614556
3524.00   0.66330050
3526.00   0.59466179
3528.00   0.31580836
3530.00   0.64499349
3532.00   0.44961156
3534.00   0.69777199
3536.00   0.69399510
3538.00   0.79446255
3540.00   0.52660164
3542.00   0.55083685
3544.00   0.75058571
3546.00   0.46193295
3548.00   0.36420607
3550.00   0.53763462
3552.00   0.68455358
3554.00   0.78875674
3556.00   0.80680811
3558.00   0.48868987
3560.00   0.70784521
3562.00   0.70894717
3564.00   0.58951585
3566.00   0.53647853
3568.00   0.73232186
3570.00   0.46753952
3572.00   0.51306876
3574.00   0.54582943
3576.00   0.47919140
3578.00   0.52728173
3580.00   0.66003997
3582.00   0.70762886
3584.00   0.45100527
3586.00   0.60473644
3588.00   0.42889851
3590.00   0.63722074
3592.00   0.50547623
3594.00   0.54082195
3596.00   0.38626902
3598.00   0.55799275
3600.00   0.64860521
3602.00   0.36591359
3604.00   0.56524639
3606.00   0.40172204
3608.00   0.47169590
3610.00   0.62609924
3612.00   0.48954414
3614.00   0.50716012
3616.00   0.54430874
3618.00   0.66610074
3620.00   0.60692819
3622.00   0.70555974
3624.00   0.59795364
3626.00   0.60828763
3628.00   0.62108053
3630.00   0.50448571
3632.00   0.39067872
3634.00   0.47581715
3636.00   0.57047325
3638.00   0.60621342
3640.00   0.54511408
3642.00   0.67070994
3644.00   0.56601794
3646.00   0.64800576
3648.00   0.80238538
3650.00   0.31515884
3652.00   0.19109349
3654.00   0.85740651
3656.00   0.75516203
3658.00   0.73900060
3660.00   0.78753794
3662.00   0.84462975
3664.00   0.52913290
3666.00   0.66063564
3668.00   0.57449152
3670.00   0.63476542
3672.00   0.52092947
3674.00   0.45346395
3676.00   0.61959417
3678.00   0.52976124
3680.00   0.50172528
3682.00   0.75362025
3684.00   0.65542090
3686.00   0.60699901
3688.00   0.60171105
3690.00   0.51615089
3692.00   0.53505672
3694.00   0.44475393
3696.00   0.60960543
3698.00   0.37105007
3700.00   0.54591036
3702.00   0.53280264
3704.00   0.77461504
3706.00   0.57248505
3708.00   0.50775026
3710.00   0.59037486
3712.00   0.46626310
3714.00   0.57915295
3716.00   0.60419854
3718.00   0.52407239
3720.00   0.53097250
3722.00   0.56964840
3724.00   0.53293682
3726.00   0.54854745
3728.00   0.63190129
3730.00   0.53388299
3732.00   0.46620870
3734.00   0.55385924
3736.00   0.56228860
3738.00   0.54949151
3740.00   0.44591658
3742.00   0.60254780
3744.00   0.54837720
3746.00   0.55136073
3748.00   0.61122566
3750.00   0.62971537
3752.00   0.57675880
3754.00   0.44665137
3756.00   0.65780418
3758.00   0.66973673
3760.00   0.56734597
3762.00   0.57007709
3764.00   0.62040455
3766.00   0.61979049
3768.00   0.61857888
3770.00   0.73922375
3772.00   0.64711298
3774.00   0.57534620
3776.00   0.51468954
3778.00   0.56875537
3780.00   0.70691177
3782.00   0.50821940
3784.00   0.63123448
3786.00   0.51525575
3788.00   0.53930478
3790.00   0.53867057
3792.00   0.58613339
3794.00   0.56748046
3796.00   0.54020960
3798.00   0.50195255
3800.00   0.67601774
3802.00   0.68546826
3804.00   0.64958315
3806.00   0.60628771
3808.00   0.51951712
3810.00   0.54445409
3812.00   0.38346796
3814.00   0.72906598
3816.00   0.58383646
3818.00   0.66668407
3820.00   0.52192362
3822.00   0.61984703
3824.00   0.65354947
3826.00   0.68399961
3828.00   0.61446914
3830.00   0.58084573
3832.00   0.55868418
3834.00   0.56796663
3836.00   0.68138750
3838.00   0.67193646
3840.00   0.65905283
3842.00   0.60731076
3844.00   0.67185795
3846.00   0.70680595
3848.00   0.61020545
3850.00   0.54274661
3852.00   0.60018274
3854.00   0.64926076
3856.00   0.62922651
3858.00   0.54747043
3860.00   0.54780820
3862.00   0.59366280
3864.00   0.63767805
3866.00   0.57029248
3868.00   0.53058245
3870.00   0.54897285
3872.00   0.55166953
3874.00   0.61426846
3876.00   0.64005307
3878.00   0.51330227
3880.00   0.66638548
3882.00   0.50779991
3884.00   0.43461587
3886.00   0.62498765
3888.00   0.62003752
3890.00   0.58951042
3892.00   0.58992649
3894.00   0.60544555
3896.00   0.59502845
3898.00   0.68958201
3900.00   0.58177204
3902.00   0.63948431
3904.00   0.53883132
3906.00   0.72117729
3908.00   0.68743533
3910.00   0.61792158
3912.00   0.50731197
3914.00   0.56148110
3916.00   0.57760139
3918.00   0.67133605
3920.00   0.56812461
3922.00   0.57839550
3924.00   0.54094372
3926.00   0.68356604
3928.00   0.68671523
3930.00   0.60794352
3932.00   0.57758159
3934.00   0.54519176
3936.00   0.61625102
3938.00   0.62949631
3940.00   0.61359280
3942.00   0.66660984
3944.00   0.70600589
3946.00   0.63079192
3948.00   0.55998557
3950.00   0.61887347
3952.00   0.70459795
3954.00   0.68593381
3956.00   0.60703976
3958.00   0.61455144
3960.00   0.61149620
3962.00   0.57847914
3964.00   0.59477350
3966.00   0.57794276
3968.00   0.61023247
3970.00   0.63269175
3972.00   0.66599031
3974.00   0.64836263
3976.00   0.60608212
3978.00   0.73648075
3980.00   0.67958787
3982.00   0.79668313
3984.00   0.72802077
3986.00   0.70190561
3988.00   0.63039873
3990.00   0.61916406
3992.00   0.61107423
3994.00   0.65547629
3996.00   0.70106288
3998.00   0.64041092
4000.00   0.79991862
4002.00   0.69547247
4004.00   0.60464676
4006.00   0.60283684
4008.00   0.59434375
4010.00   0.63974712
4012.00   0.63916849
4014.00   0.64371590
4016.00   0.55442982
4018.00   0.73931822
4020.00   0.76986643
4022.00   0.68756527
4024.00   0.65061279
4026.00   0.60325022
4028.00   0.55728805
4030.00   0.74906201
4032.00   0.75868715
4034.00   0.75940091
4036.00   0.70679574
4038.00   0.64376432
4040.00   0.65289887
4042.00   0.65079668
4044.00   0.61005062
4046.00   0.57781253
4048.00   0.63190811
4050.00   0.62498506
4052.00   0.64703718
4054.00   0.58309255
4056.00   0.60236790
4058.00   0.59562827
4060.00   0.65057887
4062.00   0.62920710
4064.00   0.71032342
4066.00   0.70211163
4068.00   0.66693949
4070.00   0.66369541
4072.00   0.55201551
4074.00   0.70727353
4076.00   0.70269226
4078.00   0.68102498
4080.00   0.58032466
4082.00   0.63788781
4084.00   0.57617326
4086.00   0.56881792
4088.00   0.58939993
4090.00   0.63693455
4092.00   0.57877062
4094.00   0.58580108
4096.00   0.52174497
4098.00   0.59848479
4100.00   0.57872632
4102.00   0.60354979
4104.00   0.66290979
4106.00   0.64484110
4108.00   0.67843766
4110.00   0.62591311
4112.00   0.62707459
4114.00   0.58016042
4116.00   0.64401522
4118.00   0.66168371
4120.00   0.62352487
4122.00   0.65022243
4124.00   0.58521025
4126.00   0.67135255
4128.00   0.61083739
4130.00   0.59338843
4132.00   0.64576424
4134.00   0.58885441
4136.00   0.61507145
4138.00   0.67892114
4140.00   0.62724924
4142.00   0.57824719
4144.00   0.55948268
4146.00   0.50761974
4148.00   0.55345083
4150.00   0.48445408
4152.00   0.50660432
4154.00   0.58302801
4156.00   0.56401795
4158.00   0.63531628
4160.00   0.62139082
4162.00   0.62426287
4164.00   0.63729527
4166.00   0.63956746
4168.00   0.62013836
4170.00   0.65991729
4172.00   0.68788511
4174.00   0.64919167
4176.00   0.65050146
4178.00   0.60669849
4180.00   0.62805525
4182.00   0.62371833
4184.00   0.58558379
4186.00   0.57607236
4188.00   0.70513965
4190.00   0.63861475
4192.00   0.67245971
4194.00   0.64918674
4196.00   0.60197157
4198.00   0.59597639
4200.00   0.57690686
4202.00   0.57205590
4204.00   0.57651460
4206.00   0.62689100
4208.00   0.66727615
4210.00   0.68016436
4212.00   0.65965962
4214.00   0.65662537
4216.00   0.71738335
4218.00   0.67203922
4220.00   0.68582548
4222.00   0.74005674
4224.00   0.66461823
4226.00   0.63055776
4228.00   0.65650679
4230.00   0.66675255
4232.00   0.67188037
4234.00   0.66178435
4236.00   0.65438760
4238.00   0.60926151
4240.00   0.62773951
4242.00   0.61126363
4244.00   0.66485200
4246.00   0.69761199
4248.00   0.77252092
4250.00   0.68569033
4252.00   0.72013717
4254.00   0.73578932
4256.00   0.73053118
4258.00   0.73933454
4260.00   0.78066406
4262.00   0.75313641
4264.00   0.76953608
4266.00   0.74942318
4268.00   0.72284636
4270.00   0.68981292
4272.00   0.70701766
4274.00   0.71349229
4276.00   0.74970212
4278.00   0.76167700
4280.00   0.75265633
4282.00   0.73344360
4284.00   0.73878812
4286.00   0.69942310
4288.00   0.70666328
4290.00   0.69073747
4292.00   0.69079371
4294.00   0.69797563
4296.00   0.65917854
4298.00   0.66379362
4300.00   0.67315494
4302.00   0.71371971
4304.00   0.70867919
4306.00   0.70146551
4308.00   0.75671685
4310.00   0.68619131
4312.00   0.71600872
4314.00   0.79538197
4316.00   0.72071371
4318.00   0.64669167
4320.00   0.68650115
4322.00   0.74071315
4324.00   0.72707144
4326.00   0.68599452
4328.00   0.66932496
4330.00   0.74056799
4332.00   0.71795024
4334.00   0.66822405
4336.00   0.64547435
4338.00   0.65078603
4340.00   0.64511051
4342.00   0.69431748
4344.00   0.73955896
4346.00   0.69520067
4348.00   0.68586210
4350.00   0.65804689
4352.00   0.67493656
4354.00   0.62819499
4356.00   0.64171070
4358.00   0.70462969
4360.00   0.73193713
4362.00   0.80504072
4364.00   0.66581410
4366.00   0.72955730
4368.00   0.64284656
4370.00   0.65037025
4372.00   0.65128190
4374.00   0.67784833
4376.00   0.63758733
4378.00   0.58929694
4380.00   0.62547803
4382.00   0.68069496
4384.00   0.67436286
4386.00   0.70808903
4388.00   0.62348059
4390.00   0.63163467
4392.00   0.66770160
4394.00   0.67098466
4396.00   0.61917896
4398.00   0.63572546
4400.00   0.65562251
4402.00   0.69072986
4404.00   0.68070671
4406.00   0.70080036
4408.00   0.63544479
4410.00   0.60157103
4412.00   0.63325181
4414.00   0.65822811
4416.00   0.63509957
4418.00   0.68307822
4420.00   0.63126742
4422.00   0.65459990
4424.00   0.62148201
4426.00   0.69499914
4428.00   0.64521559
4430.00   0.73491249
4432.00   0.68201516
4434.00   0.68999079
4436.00   0.66188887
4438.00   0.64862161
4440.00   0.61938529
4442.00   0.66624396
4444.00   0.63187093
4446.00   0.65889533
4448.00   0.61395566
4450.00   0.67940687
4452.00   0.67732031
4454.00   0.67566250
4456.00   0.66183805
4458.00   0.66718315
4460.00   0.69692638
4462.00   0.66683988
4464.00   0.67049980
4466.00   0.71777463
4468.00   0.66275934
4470.00   0.64999178
4472.00   0.65777403
4474.00   0.69753088
4476.00   0.68626038
4478.00   0.65558233
4480.00   0.72836563
4482.00   0.66182842
4484.00   0.69302668
4486.00   0.66559452
4488.00   0.68022888
4490.00   0.69710326
4492.00   0.66974996
4494.00   0.71724480
4496.00   0.67372233
4498.00   0.64409291
4500.00   0.65916758
4502.00   0.62287648
4504.00   0.66697750
4506.00   0.67144480
4508.00   0.70980851
4510.00   0.59492018
4512.00   0.65260999
4514.00   0.59405109
4516.00   0.62499458
4518.00   0.68130275
4520.00   0.65936394
4522.00   0.69264183
4524.00   0.63923608
4526.00   0.67399328
4528.00   0.72162747
4530.00   0.63497493
4532.00   0.71343398
4534.00   0.59737163
4536.00   0.68060522
4538.00   0.69238356
4540.00   0.63998006
4542.00   0.66569110
4544.00   0.66454183
4546.00   0.56188506
4548.00   0.70863309
4550.00   0.69061749
4552.00   0.67063316
4554.00   0.65653703
4556.00   0.63233824
4558.00   0.64502173
4560.00   0.69112080
4562.00   0.68015346
4564.00   0.63548946
4566.00   0.66761727
4568.00   0.62059434
4570.00   0.68016233
4572.00   0.64218313
4574.00   0.60214082
4576.00   0.66378120
4578.00   0.65830029
4580.00   0.62630273
4582.00   0.62922511
4584.00   0.61031707
4586.00   0.69837838
4588.00   0.62387824
4590.00   0.66053354
4592.00   0.61714357
4594.00   0.66679406
4596.00   0.65256503
4598.00   0.65316594
4600.00   0.58084910
4602.00   0.64101398
4604.00   0.68223234
4606.00   0.66267966
4608.00   0.67158685
4610.00   0.67759138
4612.00   0.65120978
4614.00   0.61189020
4616.00   0.63700729
4618.00   0.62589163
4620.00   0.66037608
4622.00   0.64951669
4624.00   0.63223944
4626.00   0.66786701
4628.00   0.61820333
4630.00   0.62756949
4632.00   0.60489751
4634.00   0.63173177
4636.00   0.65484790
4638.00   0.67455524
4640.00   0.65819413
4642.00   0.62215605
4644.00   0.64538137
4646.00   0.60723548
4648.00   0.68181706
4650.00   0.64757505
4652.00   0.63937165
4654.00   0.63678834
4656.00   0.63112691
4658.00   0.63476161
4660.00   0.60777950
4662.00   0.58233248
4664.00   0.62516791
4666.00   0.64496553
4668.00   0.62934565
4670.00   0.67425524
4672.00   0.57716231
4674.00   0.60277409
4676.00   0.60635380
4678.00   0.62545229
4680.00   0.62102441
4682.00   0.60372967
4684.00   0.59176213
4686.00   0.61633948
4688.00   0.59136842
4690.00   0.57094124
4692.00   0.58948723
4694.00   0.61714850
4696.00   0.61621666
4698.00   0.59359903
4700.00   0.60603204
4702.00   0.58142420
4704.00   0.59499739
4706.00   0.60720808
4708.00   0.60556384
4710.00   0.57631215
4712.00   0.56968131
4714.00   0.57434220
4716.00   0.58672874
4718.00   0.59088765
4720.00   0.62321159
4722.00   0.62053319
4724.00   0.58347308
4726.00   0.61419365
4728.00   0.59147039
4730.00   0.58201113
4732.00   0.57874462
4734.00   0.61832278
4736.00   0.54317296
4738.00   0.59307612
4740.00   0.60372805
4742.00   0.60758524
4744.00   0.59752998
4746.00   0.59868680
4748.00   0.63240694
4750.00   0.56145366
4752.00   0.58235116
4754.00   0.56793192
4756.00   0.55574118
4758.00   0.60217380
4760.00   0.56566678
4762.00   0.61182241
4764.00   0.53378032
4766.00   0.57962100
4768.00   0.59508702
4770.00   0.59329221
4772.00   0.58955543
4774.00   0.58611194
4776.00   0.61361495
4778.00   0.62265110
4780.00   0.60531693
4782.00   0.62907055
4784.00   0.58767955
4786.00   0.61661077
4788.00   0.58119121
4790.00   0.62487335
4792.00   0.63433096
4794.00   0.61095733
4796.00   0.60341513
4798.00   0.56457318
4800.00   0.63001060
4802.00   0.55132681
4804.00   0.64290841
4806.00   0.63489594
4808.00   0.64363036
4810.00   0.60549864
4812.00   0.63515907
4814.00   0.65258386
4816.00   0.66070128
4818.00   0.64730090
4820.00   0.63973207
4822.00   0.64811321
4824.00   0.62876721
4826.00   0.66840468
4828.00   0.66550424
4830.00   0.65705565
4832.00   0.63271254
4834.00   0.68353206
4836.00   0.68448493
4838.00   0.66415129
4840.00   0.66498227
4842.00   0.64906926
4844.00   0.70083255
4846.00   0.65344488
4848.00   0.66032681
4850.00   0.66440728
4852.00   0.64611128
4854.00   0.65309874
4856.00   0.67558831
4858.00   0.67171639
4860.00   0.67506563
4862.00   0.74199516
4864.00   0.68404640
4866.00   0.71293863
4868.00   0.69594648
4870.00   0.69875068
4872.00   0.69819230
4874.00   0.68367769
4876.00   0.70029866
4878.00   0.71265920
4880.00   0.71490967
4882.00   0.68362816
4884.00   0.70963994
4886.00   0.70387517
4888.00   0.71643161
4890.00   0.70499990
4892.00   0.73012606
4894.00   0.76527677
4896.00   0.76853163
4898.00   0.78424602
4900.00   0.79976571
4902.00   0.74423560
4904.00   0.74083980
4906.00   0.76089438
4908.00   0.74225238
4910.00   0.75257305
4912.00   0.75684570
4914.00   0.80084815
4916.00   0.79879742
4918.00   0.76402432
4920.00   0.77307458
4922.00   0.78474063
4924.00   0.82063862
4926.00   0.76827920
4928.00   0.80956187
4930.00   0.76435763
4932.00   0.76801954
4934.00   0.79135344
4936.00   0.82410408
4938.00   0.78509224
4940.00   0.79238307
4942.00   0.80239365
4944.00   0.80976463
4946.00   0.79650919
4948.00   0.81350961
4950.00   0.78073879
4952.00   0.81999623
4954.00   0.76972177
4956.00   0.76401734
4958.00   0.78536739
4960.00   0.75585383
4962.00   0.75351882
4964.00   0.77069632
4966.00   0.76566294
4968.00   0.77119989
4970.00   0.73559538
4972.00   0.75793011
4974.00   0.74545078
4976.00   0.79751828
4978.00   0.77391908
4980.00   0.78159015
4982.00   0.76375488
4984.00   0.77370961
4986.00   0.75976519
4988.00   0.70300696
4990.00   0.72157313
4992.00   0.67090055
4994.00   0.70439384
4996.00   0.73783411
4998.00   0.73114309
5000.00   0.72429730
5002.00   0.73936420
5004.00   0.71824031
5006.00   0.72196690
5008.00   0.72510520
5010.00   0.71605045
5012.00   0.71524421
5014.00   0.69604458
5016.00   0.70137624
5018.00   0.70268562
5020.00   0.71230101
5022.00   0.65687171
5024.00   0.69966479
5026.00   0.70274482
5028.00   0.66302156
5030.00   0.69809377
5032.00   0.64974014
5034.00   0.68072996
5036.00   0.63675883
5038.00   0.68583312
5040.00   0.66977790
5042.00   0.65141573
5044.00   0.64559874
5046.00   0.67091513
5048.00   0.64214389
5050.00   0.67457751
5052.00   0.64313248
5054.00   0.62751572
5056.00   0.65881677
5058.00   0.61413958
5060.00   0.61226177
5062.00   0.64247969
5064.00   0.60830548
5066.00   0.63787930
5068.00   0.62449483
5070.00   0.61854734
5072.00   0.64113850
5074.00   0.63666811
5076.00   0.60703739
5078.00   0.63327294
5080.00   0.64049148
5082.00   0.63004217
5084.00   0.61707036
5086.00   0.63388392
5088.00   0.61128568
5090.00   0.60131343
5092.00   0.61496162
5094.00   0.61291088
5096.00   0.65333616
5098.00   0.62585349
5100.00   0.62986070
5102.00   0.59701963
5104.00   0.62830449
5106.00   0.65434707
5108.00   0.63142182
5110.00   0.61740335
5112.00   0.60276737
5114.00   0.58881992
5116.00   0.64280420
5118.00   0.63017637
5120.00   0.60034681
5122.00   0.60673013
5124.00   0.60451959
5126.00   0.59492399
5128.00   0.66697227
5130.00   0.61544857
5132.00   0.64814578
5134.00   0.63043867
5136.00   0.61798619
5138.00   0.57179195
5140.00   0.61167238
5142.00   0.59790148
5144.00   0.61334357
5146.00   0.62998988
5148.00   0.62409683
5150.00   0.61729369
5152.00   0.58104270
5154.00   0.63591017
5156.00   0.62409854
5158.00   0.57246868
5160.00   0.60576645
5162.00   0.59705957
5164.00   0.61670889
5166.00   0.61258381
5168.00   0.58172134
5170.00   0.60176190
5172.00   0.61450626
5174.00   0.61511954
5176.00   0.61362742
5178.00   0.65451305
5180.00   0.65406949
5182.00   0.62908659
5184.00   0.61733290
5186.00   0.59689637
5188.00   0.55624846
5190.00   0.63760618
5192.00   0.69397233
5194.00   0.69971191
5196.00   0.66818282
5198.00   0.64120122
5200.00   0.62850745
5202.00   0.62124480
5204.00   0.63588087
5206.00   0.62704386
5208.00   0.58203811
5210.00   0.59092240
5212.00   0.54211801
5214.00   0.61717721
5216.00   0.60363126
5218.00   0.59154712
5220.00   0.60006091
5222.00   0.60408165
5224.00   0.61540829
5226.00   0.63907639
5228.00   0.61342453
5230.00   0.59443504
5232.00   0.58986807
5234.00   0.61400001
5236.00   0.62088694
5238.00   0.60773618
5240.00   0.61949171
5242.00   0.58378415
5244.00   0.63811998
5246.00   0.61874999
5248.00   0.63081975
5250.00   0.62695498
5252.00   0.59965868
5254.00   0.65247543
5256.00   0.65163336
5258.00   0.63681554
5260.00   0.64644940
5262.00   0.61764319
5264.00   0.64845870
5266.00   0.65288331
5268.00   0.62521973
5270.00   0.63394179
5272.00   0.64238752
5274.00   0.66789055
5276.00   0.63943326
5278.00   0.61495474
5280.00   0.58023630
5282.00   0.60822515
5284.00   0.62772128
5286.00   0.63023372
5288.00   0.63544385
5290.00   0.62604463
5292.00   0.58615047
5294.00   0.62086911
5296.00   0.61835621
5298.00   0.60573225
5300.00   0.61092873
5302.00   0.62662623
5304.00   0.60560753
5306.00   0.59701784
5308.00   0.59768362
5310.00   0.56157754
5312.00   0.61324811
5314.00   0.54116125
5316.00   0.58783650
5318.00   0.59993563
5320.00   0.58963291
5322.00   0.54777986
5324.00   0.54969453
5326.00   0.54147958
5328.00   0.53468511
5330.00   0.59329500
5332.00   0.56307191
5334.00   0.54812194
5336.00   0.55503641
5338.00   0.54863848
5340.00   0.58132266
5342.00   0.58723384
5344.00   0.58933051
5346.00   0.53546955
5348.00   0.53648896
5350.00   0.54416188
5352.00   0.55653030
5354.00   0.51185103
5356.00   0.54532925
5358.00   0.50331508
5360.00   0.55128978
5362.00   0.54766161
5364.00   0.54521461
5366.00   0.48379448
5368.00   0.55479245
5370.00   0.56067196
5372.00   0.55479178
5374.00   0.56528623
5376.00   0.56484276
5378.00   0.57120060
5380.00   0.52626526
5382.00   0.50999943
5384.00   0.50481537
5386.00   0.51644442
5388.00   0.53305136
5390.00   0.55691190
5392.00   0.50757994
5394.00   0.54081531
5396.00   0.52077295
5398.00   0.52382517
5400.00   0.54717494
5402.00   0.50684300
5404.00   0.50401391
5406.00   0.57178606
5408.00   0.56835754
5410.00   0.57001938
5412.00   0.53923681
5414.00   0.57187837
5416.00   0.54187922
5418.00   0.53582219
5420.00   0.55540828
5422.00   0.52785921
5424.00   0.52440518
5426.00   0.53587407
5428.00   0.54965194
5430.00   0.58327004
5432.00   0.60701770
5434.00   0.59413940
5436.00   0.55781144
5438.00   0.54333197
5440.00   0.53976981
5442.00   0.52796559
5444.00   0.50280245
5446.00   0.49270356
5448.00   0.51544008
5450.00   0.55035849
5452.00   0.53845540
5454.00   0.47664693
5456.00   0.47390333
5458.00   0.53259160
5460.00   0.55043796
5462.00   0.51123445
5464.00   0.47204651
5466.00   0.46814963
5468.00   0.47651573
5470.00   0.47492331
5472.00   0.46504994
5474.00   0.46811184
5476.00   0.48439220
5478.00   0.50894348
5480.00   0.53521176
5482.00   0.56536317
5484.00   0.56795412
5486.00   0.53631276
5488.00   0.52642614
5490.00   0.53129531
5492.00   0.54249573
5494.00   0.55673276
5496.00   0.57415840
5498.00   0.57619174
5500.00   0.56396163
5502.00   0.55743152
5504.00   0.55363132
5506.00   0.54595140
5508.00   0.53440109
5510.00   0.52673736
5512.00   0.52833980
5514.00   0.54112929
5516.00   0.54505551
5518.00   0.54229820
5520.00   0.54367514
5522.00   0.55075425
5524.00   0.55544527
5526.00   0.56134425
5528.00   0.57146163
5530.00   0.57517093
5532.00   0.57692942
5534.00   0.57351543
5536.00   0.55786398
5538.00   0.54120041
5540.00   0.53796388
5542.00   0.54645388
5544.00   0.55199683
5546.00   0.56133859
5548.00   0.56576966
5550.00   0.56669325
5552.00   0.56886202
5554.00   0.58045797
5556.00   0.59742856
5558.00   0.60018998
5560.00   0.59512359
5562.00   0.58752775
5564.00   0.56934050
5566.00   0.55472228
5568.00   0.54786299
5570.00   0.54473576
5572.00   0.55339506
5574.00   0.57060030
5576.00   0.60418011
5578.00   0.68807688
5580.00   0.71576956
5582.00   0.65406698
5584.00   0.57233618
5586.00   0.55210656
5588.00   0.56593901
5590.00   0.57086329
5592.00   0.58808598
5594.00   0.59309843
5596.00   0.58589435
5598.00   0.57967786
5600.00   0.58508134
5602.00   0.60020658
5604.00   0.60690899
5606.00   0.61152732
5608.00   0.61217302
5610.00   0.60586496
5612.00   0.59995748
5614.00   0.60432917
5616.00   0.61370297
5618.00   0.60804655
5620.00   0.58462776
5622.00   0.58133923
5624.00   0.59205022
5626.00   0.60561758
5628.00   0.62575243
5630.00   0.64690337
5632.00   0.64771807
5634.00   0.62976758
5636.00   0.62347189
5638.00   0.62190847
5640.00   0.61880636
5642.00   0.61038890
5644.00   0.60624897
5646.00   0.61997798
5648.00   0.65323231
5650.00   0.65962964
5652.00   0.64472076
5654.00   0.63573018
5656.00   0.63348109
5658.00   0.63485491
5660.00   0.63611022
5662.00   0.63568483
5664.00   0.62911910
5666.00   0.60790978
5668.00   0.60760114
5670.00   0.62734172
5672.00   0.64247942
5674.00   0.63806796
5676.00   0.62069932
5678.00   0.62110847
5680.00   0.63975385
5682.00   0.64597046
5684.00   0.64481878
5686.00   0.62629437
5688.00   0.59572403
5690.00   0.57830922
5692.00   0.59716117
5694.00   0.64943916
5696.00   0.67797777
5698.00   0.71246645
5700.00   0.71860763
5702.00   0.68149519
5704.00   0.63913372
5706.00   0.62723172
5708.00   0.62762699
5710.00   0.63315511
5712.00   0.65441498
5714.00   0.66679689
5716.00   0.67340618
5718.00   0.67793632
5720.00   0.67873475
5722.00   0.67776293
5724.00   0.66660070
5726.00   0.63835391
5728.00   0.62258074
5730.00   0.61777475
5732.00   0.61706653
5734.00   0.61941853
5736.00   0.62912181
5738.00   0.63143656
5740.00   0.63071954
5742.00   0.62457862
5744.00   0.60820067
5746.00   0.59910513
5748.00   0.60824615
5750.00   0.62517369
5752.00   0.62582380
5754.00   0.61259298
5756.00   0.61399139
5758.00   0.62972550
5760.00   0.63692959
5762.00   0.63218965
5764.00   0.62205708
5766.00   0.61163697
5768.00   0.60038044
5770.00   0.59390080
5772.00   0.59024815
5774.00   0.58696178
5776.00   0.58779190
5778.00   0.59215073
5780.00   0.60287577
5782.00   0.62195998
5784.00   0.63156444
5786.00   0.63295823
5788.00   0.64247528
5790.00   0.66146949
5792.00   0.66441119
5794.00   0.64303437
5796.00   0.60881086
5798.00   0.60948017
5800.00   0.64332540
5802.00   0.65396459
5804.00   0.65012355
5806.00   0.64496337
5808.00   0.64103331
5810.00   0.63733715
5812.00   0.63560042
5814.00   0.63732719
5816.00   0.63494650
5818.00   0.62602872
5820.00   0.62221859
5822.00   0.62935911
5824.00   0.64251006
5826.00   0.64927006
5828.00   0.65488318
5830.00   0.64883479
5832.00   0.62597641
5834.00   0.61145794
5836.00   0.60662100
5838.00   0.60901597
5840.00   0.61574048
5842.00   0.62839727
5844.00   0.63624614
5846.00   0.64276780
5848.00   0.64766224
5850.00   0.65271503
5852.00   0.65701741
5854.00   0.65331590
5856.00   0.65049836
5858.00   0.67147011
5860.00   0.73369056
5862.00   0.73517409
5864.00   0.67351371
5866.00   0.62938608
5868.00   0.62960388
5870.00   0.64970388
5872.00   0.66262873
5874.00   0.68799445
5876.00   0.68731508
5878.00   0.65045188
5880.00   0.63825992
5882.00   0.66550967
5884.00   0.70130056
5886.00   0.71337464
5888.00   0.71484855
5890.00   0.69045284
5892.00   0.61260992
5894.00   0.58414996
5896.00   0.60598902
5898.00   0.64055300
5900.00   0.66105765
5902.00   0.67607594
5904.00   0.68100214
5906.00   0.66738915
5908.00   0.67041856
5910.00   0.68995938
5912.00   0.70561782
5914.00   0.70205796
5916.00   0.68403515
5918.00   0.66946226
5920.00   0.64360601
5922.00   0.64029230
5924.00   0.66287458
5926.00   0.67964679
5928.00   0.67643157
5930.00   0.66352975
5932.00   0.66136274
5934.00   0.66597864
5936.00   0.67052412
5938.00   0.67952676
5940.00   0.68037896
5942.00   0.67695540
5944.00   0.67956436
5946.00   0.68324506
5948.00   0.68741754
5950.00   0.67908868
5952.00   0.65233578
5954.00   0.63799365
5956.00   0.64058241
5958.00   0.65115777
5960.00   0.65497293
5962.00   0.65236105
5964.00   0.66009837
5966.00   0.68710545
5968.00   0.69213653
5970.00   0.66371113
5972.00   0.63256548
5974.00   0.62818404
5976.00   0.64086957
5978.00   0.64915454
5980.00   0.66893706
5982.00   0.66954586
5984.00   0.64209981
5986.00   0.62532830
5988.00   0.64613132
5990.00   0.68563107
5992.00   0.68794951
5994.00   0.66090310
5996.00   0.64970450
5998.00   0.64071922
6000.00   0.63691682
6002.00   0.64709981
6004.00   0.66331109
6006.00   0.66114444
6008.00   0.64677441
6010.00   0.63740730
6012.00   0.62191074
6014.00   0.61626516
6016.00   0.62820265
6018.00   0.64355029
6020.00   0.64729996
6022.00   0.64518581
6024.00   0.63970689
6026.00   0.62151018
6028.00   0.61763340
6030.00   0.63139802
6032.00   0.64493123
6034.00   0.64418790
6036.00   0.63551173
6038.00   0.62769032
6040.00   0.61112487
6042.00   0.60661501
6044.00   0.61627704
6046.00   0.62632012
6048.00   0.62802345
6050.00   0.62790349
6052.00   0.62906602
6054.00   0.62905443
6056.00   0.62739922
6058.00   0.62231325
6060.00   0.62069829
6062.00   0.62640312
6064.00   0.63317990
6066.00   0.63134088
6068.00   0.62361710
6070.00   0.62552926
6072.00   0.64129944
6074.00   0.64195842
6076.00   0.62383553
6078.00   0.60385260
6080.00   0.59577662
6082.00   0.59111297
6084.00   0.59432465
6086.00   0.61295068
6088.00   0.62006447
6090.00   0.61476225
6092.00   0.60814570
6094.00   0.60315683
6096.00   0.59553920
6098.00   0.59458232
6100.00   0.60039626
6102.00   0.60332420
6104.00   0.60451871
6106.00   0.60515030
6108.00   0.60785389
6110.00   0.61252090
6112.00   0.61040322
6114.00   0.60295109
6116.00   0.59505528
6118.00   0.58098842
6120.00   0.57350504
6122.00   0.57902044
6124.00   0.58478652
6126.00   0.57712699
6128.00   0.55981237
6130.00   0.55798563
6132.00   0.56471476
6134.00   0.57571267
6136.00   0.59797977
6138.00   0.61704242
6140.00   0.61880329
6142.00   0.60907584
6144.00   0.60116951
6146.00   0.58600311
6148.00   0.57854041
6150.00   0.57720912
6152.00   0.57639715
6154.00   0.57797827
6156.00   0.58413215
6158.00   0.58748935
6160.00   0.59197152
6162.00   0.59219743
6164.00   0.58644158
6166.00   0.58103228
6168.00   0.58102657
6170.00   0.58277202
6172.00   0.57951769
6174.00   0.57168521
6176.00   0.56613559
6178.00   0.55792888
6180.00   0.55702455
6182.00   0.56516138
6184.00   0.57552578
6186.00   0.58258386
6188.00   0.59251457
6190.00   0.59066935
6192.00   0.57377002
6194.00   0.56469826
6196.00   0.56501971
6198.00   0.56999841
6200.00   0.57343018
6202.00   0.57513991
6204.00   0.57896630
6206.00   0.58620653
6208.00   0.59006388
6210.00   0.59011135
6212.00   0.59043950
6214.00   0.59060799
6216.00   0.58779165
6218.00   0.57992290
6220.00   0.56243727
6222.00   0.55652624
6224.00   0.56166238
6226.00   0.56387301
6228.00   0.55783117
6230.00   0.55110432
6232.00   0.55518785
6234.00   0.57033661
6236.00   0.57426633
6238.00   0.57111152
6240.00   0.56794956
6242.00   0.56383131
6244.00   0.55933826
6246.00   0.55673788
6248.00   0.55533758
6250.00   0.55433483
6252.00   0.55595468
6254.00   0.55285206
6256.00   0.54719841
6258.00   0.54332586
6260.00   0.53813237
6262.00   0.53306043
6264.00   0.53538465
6266.00   0.54791960
6268.00   0.55195493
6270.00   0.55206023
6272.00   0.55186054
6274.00   0.55227633
6276.00   0.55421533
6278.00   0.55582951
6280.00   0.55791995
6282.00   0.55899009
6284.00   0.56010276
6286.00   0.55711658
6288.00   0.55504584
6290.00   0.55807634
6292.00   0.55596034
6294.00   0.54633380
6296.00   0.54559582
6298.00   0.55309665
6300.00   0.55999048
6302.00   0.56641071
6304.00   0.56892319
6306.00   0.56091253
6308.00   0.53801951
6310.00   0.53267871
6312.00   0.53815345
6314.00   0.54553780
6316.00   0.55723575
6318.00   0.56556283
6320.00   0.56011686
6322.00   0.54361244
6324.00   0.53731990
6326.00   0.53709854
6328.00   0.53443143
6330.00   0.52646352
6332.00   0.51949787
6334.00   0.52383155
6336.00   0.53843427
6338.00   0.54688722
6340.00   0.55535899
6342.00   0.56043135
6344.00   0.56212074
6346.00   0.56162342
6348.00   0.56275010
6350.00   0.56177989
6352.00   0.55664483
6354.00   0.55050521
6356.00   0.54077776
6358.00   0.52017829
6360.00   0.50926906
6362.00   0.51362655
6364.00   0.52207853
6366.00   0.52669802
6368.00   0.53427044
6370.00   0.53286932
6372.00   0.51986820
6374.00   0.51381713
6376.00   0.51612033
6378.00   0.52174991
6380.00   0.52530761
6382.00   0.52876173
6384.00   0.52959640
6386.00   0.52748278
6388.00   0.52614126
6390.00   0.52591114
6392.00   0.52536991
6394.00   0.52202199
6396.00   0.51771016
6398.00   0.51870695
6400.00   0.52525590
6402.00   0.52598569
6404.00   0.52443045
6406.00   0.52272643
6408.00   0.51876564
6410.00   0.51537803
6412.00   0.51152465
6414.00   0.50451234
6416.00   0.50089453
6418.00   0.49912465
6420.00   0.50018623
6422.00   0.50680020
6424.00   0.51444891
6426.00   0.51408909
6428.00   0.50602879
6430.00   0.50749624
6432.00   0.51509462
6434.00   0.52347375
6436.00   0.53456870
6438.00   0.54137185
6440.00   0.53709181
6442.00   0.52318056
6444.00   0.51995988
6446.00   0.52315214
6448.00   0.52508992
6450.00   0.52822228
6452.00   0.53031935
6454.00   0.52764834
6456.00   0.52134643
6458.00   0.51734799
6460.00   0.51291479
6462.00   0.50998794
6464.00   0.50887133
6466.00   0.50949225
6468.00   0.51035817
6470.00   0.51048753
6472.00   0.50854090
6474.00   0.50497630
6476.00   0.50225714
6478.00   0.49660574
6480.00   0.49568655
6482.00   0.50467643
6484.00   0.51720485
6486.00   0.52127422
6488.00   0.51988940
6490.00   0.52053408
6492.00   0.52100112
6494.00   0.52135164
6496.00   0.52197361
6498.00   0.51865964
6500.00   0.51194318
6502.00   0.50680596
6504.00   0.50367509
6506.00   0.50234249
6508.00   0.49893312
6510.00   0.49765860
6512.00   0.49781154
6514.00   0.49913649
6516.00   0.50429246
6518.00   0.50991555
6520.00   0.52040164
6522.00   0.52208453
6524.00   0.51570110
6526.00   0.50855514
6528.00   0.50476912
6530.00   0.50451158
6532.00   0.50273709
6534.00   0.49826832
6536.00   0.49782887
6538.00   0.50176722
6540.00   0.50490429
6542.00   0.50836033
6544.00   0.51378429
6546.00   0.51520455
6548.00   0.51335426
6550.00   0.50958768
6552.00   0.50127102
6554.00   0.49494688
6556.00   0.49298073
6558.00   0.49233815
6560.00   0.48617239
6562.00   0.47502533
6564.00   0.47741124
6566.00   0.49500403
6568.00   0.50257622
6570.00   0.50515847
6572.00   0.50640208
6574.00   0.50160417
6576.00   0.49207011
6578.00   0.49050404
6580.00   0.49670775
6582.00   0.49458855
6584.00   0.48395620
6586.00   0.47842072
6588.00   0.48277645
6590.00   0.49032611
6592.00   0.49134450
6594.00   0.48914401
6596.00   0.48743270
6598.00   0.48364504
6600.00   0.48170432
6602.00   0.48228106
6604.00   0.48350710
6606.00   0.48323642
6608.00   0.48437157
6610.00   0.48264122
6612.00   0.47600389
6614.00   0.47287975
6616.00   0.47859889
6618.00   0.48555446
6620.00   0.48518945
6622.00   0.48174682
6624.00   0.48046520
6626.00   0.47871675
6628.00   0.47804295
6630.00   0.48197140
6632.00   0.48535530
6634.00   0.48183633
6636.00   0.47471294
6638.00   0.47187577
6640.00   0.47217922
6642.00   0.46832703
6644.00   0.45829004
6646.00   0.45549184
6648.00   0.46465643
6650.00   0.47848888
6652.00   0.48444462
6654.00   0.48712869
6656.00   0.48612155
6658.00   0.47685513
6660.00   0.47444399
6662.00   0.48100145
6664.00   0.48767480
6666.00   0.48617721
6668.00   0.47889520
6670.00   0.47641008
6672.00   0.47707500
6674.00   0.47544923
6676.00   0.47118025
6678.00   0.46601973
6680.00   0.46238695
6682.00   0.46046524
6684.00   0.45957558
6686.00   0.46214530
6688.00   0.46104933
6690.00   0.45348038
6692.00   0.44649930
6694.00   0.44925913
6696.00   0.45747787
6698.00   0.45943180
6700.00   0.45885864
6702.00   0.45835170
6704.00   0.45604952
6706.00   0.45214483
6708.00   0.44711587
6710.00   0.44302577
6712.00   0.44509490
6714.00   0.45349313
6716.00   0.45729712
6718.00   0.46014692
6720.00   0.46114327
6722.00   0.45816416
6724.00   0.45365256
6726.00   0.45316549
6728.00   0.45561366
6730.00   0.45718008
6732.00   0.45987378
6734.00   0.46070468
6736.00   0.46068385
6738.00   0.46025199
6740.00   0.45709594
6742.00   0.45292707
6744.00   0.45403226
6746.00   0.46194896
6748.00   0.46237099
6750.00   0.46032555
6752.00   0.46183571
6754.00   0.46247718
6756.00   0.46126185
6758.00   0.46086216
6760.00   0.45992419
6762.00   0.46099934
6764.00   0.46601743
6766.00   0.46739097
6768.00   0.46220370
6770.00   0.45571558
6772.00   0.45844054
6774.00   0.47128928
6776.00   0.47418655
6778.00   0.46869893
6780.00   0.46563460
6782.00   0.46689390
6784.00   0.46973465
6786.00   0.47354354
6788.00   0.48021093
6790.00   0.48185243
6792.00   0.47819771
6794.00   0.47754543
6796.00   0.48211162
6798.00   0.48528457
6800.00   0.47930507
6802.00   0.46396001
6804.00   0.46265259
6806.00   0.47323804
6808.00   0.47967595
6810.00   0.48268005
6812.00   0.48358171
6814.00   0.48123233
6816.00   0.47576666
6818.00   0.47568989
6820.00   0.48032151
6822.00   0.48139942
6824.00   0.48080744
6826.00   0.47983734
6828.00   0.47822987
6830.00   0.47727650
6832.00   0.47803830
6834.00   0.48104498
6836.00   0.48227912
6838.00   0.48151559
6840.00   0.48185669
6842.00   0.48646370
6844.00   0.49173464
6846.00   0.49157609
6848.00   0.48725875
6850.00   0.48519120
6852.00   0.48132841
6854.00   0.48199835
6856.00   0.48665936
6858.00   0.49362706
6860.00   0.50516613
6862.00   0.52205525
6864.00   0.53056128
6866.00   0.53961301
6868.00   0.53564678
6870.00   0.51128849
6872.00   0.48791690
6874.00   0.47962175
6876.00   0.47991572
6878.00   0.48190425
6880.00   0.49159022
6882.00   0.49505450
6884.00   0.49468933
6886.00   0.49495442
6888.00   0.49721059
6890.00   0.49884029
6892.00   0.49815381
6894.00   0.49637012
6896.00   0.49596572
6898.00   0.49525136
6900.00   0.49457583
6902.00   0.49597965
6904.00   0.49737631
6906.00   0.49798748
6908.00   0.49921998
6910.00   0.49966983
6912.00   0.49665827
6914.00   0.49905552
6916.00   0.50996457
6918.00   0.52269430
6920.00   0.52843010
6922.00   0.52910776
6924.00   0.52244580
6926.00   0.50178553
6928.00   0.49201453
6930.00   0.49040088
6932.00   0.49056254
6934.00   0.48991503
6936.00   0.48922707
6938.00   0.49053013
6940.00   0.49387629
6942.00   0.49871136
6944.00   0.50383534
6946.00   0.50853191
6948.00   0.51597686
6950.00   0.52368684
6952.00   0.52708615
6954.00   0.52827430
6956.00   0.52886024
6958.00   0.52893589
6960.00   0.52556449
6962.00   0.51522256
6964.00   0.50316440
6966.00   0.50270306
6968.00   0.51212907
6970.00   0.51921433
6972.00   0.52941252
6974.00   0.53716484
6976.00   0.54323252
6978.00   0.54730649
6980.00   0.54966527
6982.00   0.54959810
6984.00   0.54915243
6986.00   0.54493482
6988.00   0.54651532
6990.00   0.55228761
6992.00   0.55815794
6994.00   0.56214742
6996.00   0.56646393
6998.00   0.58164252
7000.00   0.59552135
7002.00   0.63654116
7004.00   0.72038367
7006.00   0.78974241
7008.00   0.82673123
7010.00   0.84145862
7012.00   0.82582751
7014.00   0.77013659
7016.00   0.72640955
7018.00   0.66973847
7020.00   0.63133901
7022.00   0.61827314
7024.00   0.61759014
7026.00   0.61437128
7028.00   0.61718734
7030.00   0.61082250
7032.00   0.59795859
7034.00   0.58492821
7036.00   0.57013142
7038.00   0.55765592
7040.00   0.54836641
7042.00   0.53939804
7044.00   0.53600678
7046.00   0.53962870
7048.00   0.54075125
7050.00   0.54181705
7052.00   0.54294623
7054.00   0.54102147
7056.00   0.53684399
7058.00   0.53429365
7060.00   0.53111279
7062.00   0.53107071
7064.00   0.53499101
7066.00   0.53701539
7068.00   0.53595765
7070.00   0.53373356
7072.00   0.53253508
7074.00   0.53152966
7076.00   0.52846572
7078.00   0.52358977
7080.00   0.52004234
7082.00   0.51473008
7084.00   0.50864826
7086.00   0.50703815
7088.00   0.50706254
7090.00   0.50696631
7092.00   0.50911559
7094.00   0.50962880
7096.00   0.50471227
7098.00   0.49926364
7100.00   0.49813697
7102.00   0.49954084
7104.00   0.49871774
7106.00   0.49521537
7108.00   0.49504319
7110.00   0.50155954
7112.00   0.50674273
7114.00   0.50200884
7116.00   0.49099593
7118.00   0.48783727
7120.00   0.48884653
7122.00   0.48981786
7124.00   0.49340530
7126.00   0.49652581
7128.00   0.49594033
7130.00   0.49191786
7132.00   0.48776650
7134.00   0.48013359
7136.00   0.47892869
7138.00   0.48504837
7140.00   0.48807973
7142.00   0.48557532
7144.00   0.48259524
7146.00   0.48328905
7148.00   0.48702589
7150.00   0.48718539
7152.00   0.48397979
7154.00   0.48276144
7156.00   0.48433657
7158.00   0.48761587
7160.00   0.49074635
7162.00   0.49411666
7164.00   0.49293931
7166.00   0.48280114
7168.00   0.48331469
7170.00   0.49830732
7172.00   0.50735256
7174.00   0.50057223
7176.00   0.48722711
7178.00   0.47795369
7180.00   0.46343251
7182.00   0.46099837
7184.00   0.47203094
7186.00   0.48272628
7188.00   0.49100520
7190.00   0.49561916
7192.00   0.49014559
7194.00   0.47319092
7196.00   0.46595775
7198.00   0.46285467
7200.00   0.46037684
7202.00   0.46006912
7204.00   0.46107861
7206.00   0.46082683
7208.00   0.46054880
7210.00   0.46131392
7212.00   0.46302852
7214.00   0.46469015
7216.00   0.46828714
7218.00   0.46813475
7220.00   0.46313550
7222.00   0.45849909
7224.00   0.45524415
7226.00   0.45130028
7228.00   0.44928861
7230.00   0.45183830
7232.00   0.45367499
7234.00   0.45579629
7236.00   0.46013601
7238.00   0.45932958
7240.00   0.45179248
7242.00   0.45004421
7244.00   0.45385277
7246.00   0.45877807
7248.00   0.46075602
7250.00   0.45898728
7252.00   0.45776725
7254.00   0.45698574
7256.00   0.45671068
7258.00   0.45537879
7260.00   0.45448871
7262.00   0.45662928
7264.00   0.45921473
7266.00   0.45802757
7268.00   0.45272331
7270.00   0.45028400
7272.00   0.45012176
7274.00   0.44860169
7276.00   0.44163537
7278.00   0.43514577
7280.00   0.43679665
7282.00   0.44239019
7284.00   0.44834764
7286.00   0.46202768
7288.00   0.46565983
7290.00   0.45251518
7292.00   0.44061559
7294.00   0.44555518
7296.00   0.46110032
7298.00   0.46350515
7300.00   0.45866378
7302.00   0.45353661
7304.00   0.44356687
7306.00   0.43585727
7308.00   0.43763466
7310.00   0.44720672
7312.00   0.45403284
7314.00   0.46479820
7316.00   0.46814880
7318.00   0.46481508
7320.00   0.45872410
7322.00   0.45399590
7324.00   0.45078164
7326.00   0.44644670
7328.00   0.43982959
7330.00   0.43656020
7332.00   0.43512899
7334.00   0.43535814
7336.00   0.43727426
7338.00   0.44067731
7340.00   0.44592446
7342.00   0.45473048
7344.00   0.45102403
7346.00   0.43086028
7348.00   0.42286500
7350.00   0.42594796
7352.00   0.43255709
7354.00   0.43985781
7356.00   0.44984524
7358.00   0.45157631
7360.00   0.44603039
7362.00   0.44192527
7364.00   0.43635398
7366.00   0.43341193
7368.00   0.43495499
7370.00   0.43863033
7372.00   0.43693250
7374.00   0.43025416
7376.00   0.42642920
7378.00   0.42359360
7380.00   0.42248707
7382.00   0.42183334
7384.00   0.42210202
7386.00   0.42554606
7388.00   0.43321380
7390.00   0.44059499
7392.00   0.45267116
7394.00   0.45714132
7396.00   0.45428294
7398.00   0.45107281
7400.00   0.44933517
7402.00   0.44548288
7404.00   0.44004671
7406.00   0.43048948
7408.00   0.42589940
7410.00   0.42439325
7412.00   0.42408878
7414.00   0.42493755
7416.00   0.42648640
7418.00   0.42688696
7420.00   0.42547020
7422.00   0.42729811
7424.00   0.43180749
7426.00   0.43672690
7428.00   0.44153118
7430.00   0.44632812
7432.00   0.44627255
7434.00   0.43997903
7436.00   0.43732287
7438.00   0.43853466
7440.00   0.43779376
7442.00   0.42994767
7444.00   0.42124367
7446.00   0.42134009
7448.00   0.42651874
7450.00   0.43058114
7452.00   0.43784232
7454.00   0.44180189
7456.00   0.44190949
7458.00   0.44153516
7460.00   0.43888140
7462.00   0.43287298
7464.00   0.43105713
7466.00   0.43267767
7468.00   0.43186685
7470.00   0.43170859
7472.00   0.43157627
7474.00   0.42732285
7476.00   0.41980670
7478.00   0.41654634
7480.00   0.41635960
7482.00   0.41506241
7484.00   0.41183396
7486.00   0.41080420
7488.00   0.41391914
7490.00   0.41875976
7492.00   0.42201439
7494.00   0.42572591
7496.00   0.42663637
7498.00   0.42340769
7500.00   0.42290600
7502.00   0.42651273
7504.00   0.43047360
7506.00   0.42997418
7508.00   0.42713919
7510.00   0.42312685
7512.00   0.41373347
7514.00   0.41014637
7516.00   0.41633588
7518.00   0.42203605
7520.00   0.41782802
7522.00   0.40654439
7524.00   0.40238838
7526.00   0.40188023
7528.00   0.40133625
7530.00   0.40061137
7532.00   0.40199034
7534.00   0.40527770
7536.00   0.40964317
7538.00   0.41342391
7540.00   0.41664676
7542.00   0.42144960
7544.00   0.42993718
7546.00   0.43535361
7548.00   0.43568638
7550.00   0.43220274
7552.00   0.42356785
7554.00   0.40434220
7556.00   0.39903265
7558.00   0.40528905
7560.00   0.41080520
7562.00   0.41404340
7564.00   0.41598777
7566.00   0.41740108
7568.00   0.41931213
7570.00   0.41656658
7572.00   0.40877689
7574.00   0.40212144
7576.00   0.39300761
7578.00   0.38543192
7580.00   0.38839072
7582.00   0.40116554
7584.00   0.40796196
7586.00   0.41662782
7588.00   0.41805197
7590.00   0.40411356
#7592.00   0.39859529
#7594.00   0.41919754
#7596.00   0.45588732
#7598.00   0.48413652
#7600.00   0.53368570
#7602.00   0.53051877
#7604.00   0.46844162
#7606.00   0.42048402
#7608.00   0.40716988
7610.00   0.41144235
7612.00   0.40975389
7614.00   0.41312483
7616.00   0.40735403
7618.00   0.39178050
7620.00   0.38093664
7622.00   0.37848008
7624.00   0.38030535
7626.00   0.39063297
7628.00   0.41671810
7630.00   0.42447197
7632.00   0.42062812
7634.00   0.41558869
7636.00   0.40400238
7638.00   0.39057326
7640.00   0.38920182
7642.00   0.39690799
7644.00   0.39632580
7646.00   0.39077421
7648.00   0.38803640
7650.00   0.38381605
7652.00   0.38151735
7654.00   0.38937961
7656.00   0.40474515
7658.00   0.40437299
7660.00   0.39087828
7662.00   0.38222088
7664.00   0.37153365
7666.00   0.36468458
7668.00   0.36645524
7670.00   0.37353541
7672.00   0.37865388
7674.00   0.38523860
7676.00   0.39220011
7678.00   0.40134355
7680.00   0.40641274
7682.00   0.40728657
7684.00   0.40518396
7686.00   0.40358764
7688.00   0.40232563
7690.00   0.40041171
7692.00   0.39760473
7694.00   0.39480563
7696.00   0.39146622
7698.00   0.38834639
7700.00   0.38779642
7702.00   0.38901630
7704.00   0.39163306
7706.00   0.39730097
7708.00   0.40111516
7710.00   0.40619911
7712.00   0.40725817
7714.00   0.39796904
7716.00   0.38276164
7718.00   0.37898616
7720.00   0.38201468
7722.00   0.38571906
7724.00   0.39690737
7726.00   0.40458518
7728.00   0.40205650
7730.00   0.39442198
7732.00   0.39313532
7734.00   0.39558817
7736.00   0.39628588
7738.00   0.39700423
7740.00   0.39619908
7742.00   0.39363898
7744.00   0.38944967
7746.00   0.38706160
7748.00   0.38777435
7750.00   0.38619293
7752.00   0.38329218
7754.00   0.37938575
7756.00   0.37384547
7758.00   0.37058748
7760.00   0.37481929
7762.00   0.38623638
7764.00   0.39048979
7766.00   0.38971367
7768.00   0.39151275
7770.00   0.39659013
7772.00   0.40100452
7774.00   0.40287112
7776.00   0.40364759
7778.00   0.40452284
7780.00   0.40681620
7782.00   0.40487584
7784.00   0.39812258
7786.00   0.38965477
7788.00   0.38104378
7790.00   0.37335142
7792.00   0.37458174
7794.00   0.38525201
7796.00   0.39276515
7798.00   0.40166137
7800.00   0.40740459
7802.00   0.40997849
7804.00   0.40851367
7806.00   0.40328258
7808.00   0.39229265
7810.00   0.38795249
7812.00   0.38478808
7814.00   0.38806689
7816.00   0.40080911
7818.00   0.41347338
7820.00   0.41580950
7822.00   0.40945956
7824.00   0.40608343
7826.00   0.40131178
7828.00   0.39833096
7830.00   0.39561698
7832.00   0.39354159
7834.00   0.39034364
7836.00   0.38422841
7838.00   0.38041635
7840.00   0.37648913
7842.00   0.37638995
7844.00   0.37878007
7846.00   0.38292068
7848.00   0.38816224
7850.00   0.39186640
7852.00   0.39221491
7854.00   0.38748302
7856.00   0.39220783
7858.00   0.40713173
7860.00   0.41590635
7862.00   0.41647153
7864.00   0.41347626
7866.00   0.41105801
7868.00   0.40742685
7870.00   0.40532508
7872.00   0.40521398
7874.00   0.40221030
7876.00   0.39618875
7878.00   0.39169320
7880.00   0.39040047
7882.00   0.39139533
7884.00   0.39462821
7886.00   0.40476823
7888.00   0.40612957
7890.00   0.39902058
7892.00   0.39428619
7894.00   0.39702278
7896.00   0.40383387
7898.00   0.40536582
7900.00   0.40268078
7902.00   0.40317309
7904.00   0.40567999
7906.00   0.40892580
7908.00   0.41253747
7910.00   0.41479048
7912.00   0.41267231
7914.00   0.40616480
7916.00   0.40125330
7918.00   0.39538436
7920.00   0.39060497
7922.00   0.38679516
7924.00   0.38475265
7926.00   0.38653672
7928.00   0.39298126
7930.00   0.39721395
7932.00   0.40414140
7934.00   0.40485324
7936.00   0.39776339
7938.00   0.38879193
7940.00   0.38166559
7942.00   0.37179422
7944.00   0.37276264
7946.00   0.38799532
7948.00   0.39381622
7950.00   0.39084986
7952.00   0.38497984
7954.00   0.37811098
7956.00   0.36979814
7958.00   0.37000723
7960.00   0.37717068
7962.00   0.38404880
7964.00   0.39686875
7966.00   0.40813828
7968.00   0.40926233
7970.00   0.40278928
7972.00   0.40424214
7974.00   0.41243713
7976.00   0.41427420
7978.00   0.40931344
7980.00   0.40584064
7982.00   0.40679072
7984.00   0.41069040
7986.00   0.41464877
7988.00   0.42140333
7990.00   0.42051995
7992.00   0.41245516
7994.00   0.40553351
7996.00   0.39962135
7998.00   0.39346170
8000.00   0.38763593
8002.00   0.38102506
8004.00   0.37777156
8006.00   0.37891412
8008.00   0.37791236
8010.00   0.37149774
8012.00   0.36608979
8014.00   0.36919972
8016.00   0.37770265
8018.00   0.38069062
8020.00   0.37986699
8022.00   0.38218918
8024.00   0.38681030
8026.00   0.39080155
8028.00   0.39221884
8030.00   0.39202766
8032.00   0.39384392
8034.00   0.39866568
8036.00   0.39784977
8038.00   0.39191118
8040.00   0.38563626
8042.00   0.37854870
8044.00   0.37180845
8046.00   0.37138504
8048.00   0.37794143
8050.00   0.38285255
8052.00   0.39204410
8054.00   0.39387313
8056.00   0.38835108
8058.00   0.37903719
8060.00   0.37082912
8062.00   0.36318204
8064.00   0.36113565
8066.00   0.36649187
8068.00   0.36729050
8070.00   0.36475676
8072.00   0.36040209
8074.00   0.35656130
8076.00   0.35240474
8078.00   0.35487424
8080.00   0.36481996
8082.00   0.37191345
8084.00   0.38024928
8086.00   0.38441424
8088.00   0.37826821
8090.00   0.36652000
8092.00   0.36444274
8094.00   0.36728571
8096.00   0.36962868
8098.00   0.37651026
8100.00   0.38003176
8102.00   0.37652822
8104.00   0.37287147
8106.00   0.37368898
8108.00   0.37646593
8110.00   0.37734361
8112.00   0.37859036
8114.00   0.37781875
8116.00   0.37444431
8118.00   0.37130103
8120.00   0.36855343
8122.00   0.36468829
8124.00   0.36268210
8126.00   0.36105987
8128.00   0.36154035
8130.00   0.36610304
8132.00   0.37112568
8134.00   0.37238936
8136.00   0.37175974
8138.00   0.37134229
8140.00   0.36919543
8142.00   0.36902462
8144.00   0.37172809
8146.00   0.37443574
8148.00   0.37396377
8150.00   0.37107971
8152.00   0.37127885
8154.00   0.37223899
8156.00   0.37623565
8158.00   0.38546543
8160.00   0.39217883
8162.00   0.39388418
8164.00   0.39258793
8166.00   0.39062627
8168.00   0.38576812
8170.00   0.38640912
8172.00   0.38953373
8174.00   0.39595173
8176.00   0.40830407
8178.00   0.42245398
8180.00   0.43451847
8182.00   0.45069438
8184.00   0.45372421
8186.00   0.44477238
8188.00   0.43627061
8190.00   0.42427027
8192.00   0.41264151
8194.00   0.41425651
8196.00   0.42702116
8198.00   0.42432790
8200.00   0.40954113
8202.00   0.40050457
8204.00   0.38987352
8206.00   0.38264033
8208.00   0.38772313
8210.00   0.40152647
8212.00   0.40322536
8214.00   0.39728878
8216.00   0.39367338
8218.00   0.39027193
8220.00   0.38522196
8222.00   0.37949872
8224.00   0.37596655
8226.00   0.37483463
8228.00   0.37210728
8230.00   0.37877990
8232.00   0.39969949
8234.00   0.41337207
8236.00   0.41609834
8238.00   0.41105272
8240.00   0.40208387
8242.00   0.38556619
8244.00   0.37887785
8246.00   0.37925321
8248.00   0.37842926
8250.00   0.37513056
8252.00   0.37184955
8254.00   0.37332447
8256.00   0.37918805
8258.00   0.37742460
8260.00   0.36838594
8262.00   0.36309752
8264.00   0.35942049
8266.00   0.35931538
8268.00   0.36408332
8270.00   0.37212351
8272.00   0.37351993
8274.00   0.37062766
8276.00   0.36702821
8278.00   0.35955659
8280.00   0.35580418
8282.00   0.35565239
8284.00   0.35795175
8286.00   0.36558306
8288.00   0.38060515
8290.00   0.38525261
8292.00   0.38203779
8294.00   0.38070300
8296.00   0.37703933
8298.00   0.37383957
8300.00   0.38281555
8302.00   0.40521365
8304.00   0.40421969
8306.00   0.37990701
8308.00   0.36882511
8310.00   0.36940739
8312.00   0.37208956
8314.00   0.37042077
8316.00   0.36607064
8318.00   0.36729158
8320.00   0.37593991
8322.00   0.37751457
8324.00   0.37214069
8326.00   0.36839259
8328.00   0.36816148
8330.00   0.36743982
8332.00   0.36430362
8334.00   0.35726884
8336.00   0.35623632
8338.00   0.36422218
8340.00   0.36585967
8342.00   0.34982765
8344.00   0.33078462
8346.00   0.34047493
8348.00   0.37925091
8350.00   0.38631122
8352.00   0.36962171
8354.00   0.35878266
8356.00   0.35448974
8358.00   0.35460931
8360.00   0.35807021
8362.00   0.36380269
8364.00   0.36701530
8366.00   0.37197521
8368.00   0.37187283
8370.00   0.36147034
8372.00   0.35230421
8374.00   0.35291053
8376.00   0.35902463
8378.00   0.36467791
8380.00   0.37540419
8382.00   0.37971003
8384.00   0.37960881
8386.00   0.37780395
8388.00   0.37293845
8390.00   0.36671899
8392.00   0.36973409
8394.00   0.37993389
8396.00   0.38972515
8398.00   0.40884413
8400.00   0.41722465
8402.00   0.40393960
8404.00   0.38052401
8406.00   0.37122063
8408.00   0.36882174
8410.00   0.36802064
8412.00   0.37297735
8414.00   0.37514336
8416.00   0.37425759
8418.00   0.37025487
8420.00   0.36748552
8422.00   0.36520110
8424.00   0.36359291
8426.00   0.35970536
8428.00   0.36353017
8430.00   0.37655945
8432.00   0.38523297
8434.00   0.38021043
8436.00   0.36354923
8438.00   0.35317007
8440.00   0.34004252
8442.00   0.33577785
8444.00   0.33767924
8446.00   0.34145182
8448.00   0.34753938
8450.00   0.35550302
8452.00   0.35985354
8454.00   0.35874000
8456.00   0.36850826
8458.00   0.39294314
8460.00   0.40739734
8462.00   0.40875769
8464.00   0.40205550
8466.00   0.38530289
8468.00   0.35062936
8470.00   0.33640191
8472.00   0.33457160
8474.00   0.33568686
8476.00   0.34231155
8478.00   0.35150762
8480.00   0.35539484
8482.00   0.35617602
8484.00   0.35351151
8486.00   0.34364000
8488.00   0.33914502
8490.00   0.33955629
8492.00   0.34169091
8494.00   0.34330799
8496.00   0.34495972
8498.00   0.34507090
8500.00   0.34219281
8502.00   0.34336850
8504.00   0.34891552
8506.00   0.35230421
8508.00   0.35116360
8510.00   0.34727630
8512.00   0.34084742
8514.00   0.32747035
8516.00   0.32376385
8518.00   0.32890534
8520.00   0.33219645
8522.00   0.33378291
8524.00   0.33612679
8526.00   0.33558758
8528.00   0.33134384
8530.00   0.33027148
8532.00   0.33137226
8534.00   0.33214279
8536.00   0.33181393
8538.00   0.33245550
8540.00   0.33590840
8542.00   0.34130833
8544.00   0.34426580
8546.00   0.34545392
8548.00   0.34764747
8550.00   0.35089271
8552.00   0.35372545
8554.00   0.35362926
8556.00   0.35211846
8558.00   0.35109130
8560.00   0.35133423
8562.00   0.34676406
8564.00   0.33858308
8566.00   0.33412150
8568.00   0.33231471
8570.00   0.32964616
8572.00   0.32794164
8574.00   0.32602049
8576.00   0.32896169
8578.00   0.33818041
8580.00   0.34493063
8582.00   0.34573677
8584.00   0.34279370
8586.00   0.34212528
8588.00   0.34426737
8590.00   0.34366934
8592.00   0.34261809
8594.00   0.33640318
8596.00   0.32216244
8598.00   0.31011120
8600.00   0.31662840
8602.00   0.34028389
8604.00   0.35141753
8606.00   0.35920741
8608.00   0.36358540
8610.00   0.36684446
8612.00   0.36733672
8614.00   0.35818557
8616.00   0.34009255
8618.00   0.33322763
8620.00   0.33106564
8622.00   0.33264019
8624.00   0.34267144
8626.00   0.35306364
8628.00   0.35820961
8630.00   0.36003758
8632.00   0.35569806
8634.00   0.34171517
8636.00   0.33597060
8638.00   0.33668223
8640.00   0.33438577
8642.00   0.32742630
8644.00   0.32268620
8646.00   0.32482171
8648.00   0.33145623
8650.00   0.33515458
8652.00   0.34021388
8654.00   0.34236363
8656.00   0.34013879
8658.00   0.34005512
8660.00   0.34068792
8662.00   0.33747715
8664.00   0.33332735
8666.00   0.32503928
8668.00   0.32283983
8670.00   0.32476333
8672.00   0.32544313
8674.00   0.32381856
8676.00   0.32191727
8678.00   0.32496683
8680.00   0.33420095
8682.00   0.33941998
8684.00   0.34391552
8686.00   0.34423105
8688.00   0.33732487
8690.00   0.32622875
8692.00   0.32158507
8694.00   0.31977594
8696.00   0.31943415
8698.00   0.32215910
8700.00   0.32494146
8702.00   0.32866165
8704.00   0.33142442
8706.00   0.32805659
8708.00   0.31844631
8710.00   0.31415251
8712.00   0.31177574
8714.00   0.31135783
8716.00   0.31257825
8718.00   0.31293922
8720.00   0.31409346
8722.00   0.31827120
8724.00   0.32075420
8726.00   0.32319324
8728.00   0.32408895
8730.00   0.32413726
8732.00   0.32236924
8734.00   0.31998018
8736.00   0.31717031
8738.00   0.31421803
8740.00   0.30937515
8742.00   0.30794407
8744.00   0.30873980
8746.00   0.31060657
8748.00   0.31472141
8750.00   0.32160680
8752.00   0.32286571
8754.00   0.31867699
8756.00   0.31693176
8758.00   0.31664702
8760.00   0.31772003
8762.00   0.32104104
8764.00   0.32270461
8766.00   0.31546929
8768.00   0.29627462
8770.00   0.28855815
8772.00   0.28962830
8774.00   0.29058818
8776.00   0.28453868
8778.00   0.27585720
8780.00   0.27509952
8782.00   0.27918946
8784.00   0.28663889
8786.00   0.30514433
8788.00   0.31317769
8790.00   0.30644159
8792.00   0.29556067
8794.00   0.29173798
8796.00   0.28996512
8798.00   0.29054181
8800.00   0.29584856
8802.00   0.29818062
8804.00   0.29648145
8806.00   0.29722788
8808.00   0.30243057
8810.00   0.30910730
8812.00   0.31335175
8814.00   0.31671870
8816.00   0.31919509
8818.00   0.32018213
8820.00   0.32154517
8822.00   0.32611892
8824.00   0.32972133
8826.00   0.31929556
8828.00   0.29347689
8830.00   0.28074328
8832.00   0.26976612
8834.00   0.26901522
8836.00   0.28854494
8838.00   0.31159216
8840.00   0.30966694
8842.00   0.28784628
8844.00   0.28269436
8846.00   0.28299645
8848.00   0.28796387
8850.00   0.30172367
8852.00   0.31429626
8854.00   0.31507117
8856.00   0.30732422
8858.00   0.30512794
8860.00   0.30500984
8862.00   0.30309962
8864.00   0.30090397
8866.00   0.29901563
8868.00   0.29349323
8870.00   0.28326126
8872.00   0.27613246
8874.00   0.26594611
8876.00   0.26795971
8878.00   0.28426016
8880.00   0.29769985
8882.00   0.30367239
8884.00   0.30296951
8886.00   0.29461123
8888.00   0.27321727
8890.00   0.26271953
8892.00   0.25526698
8894.00   0.25674350
8896.00   0.26586515
8898.00   0.27500883
8900.00   0.27756629
8902.00   0.27451165
8904.00   0.27866413
8906.00   0.29030617
8908.00   0.29618810
8910.00   0.29738780
8912.00   0.29500877
8914.00   0.28767954
8916.00   0.27961129
8918.00   0.27127603
8920.00   0.25604358
8922.00   0.25031639
8924.00   0.26180932
8926.00   0.27473613
8928.00   0.27903216
8930.00   0.28331047
8932.00   0.28741988
8934.00   0.28763712
8936.00   0.29286531
8938.00   0.30998027
8940.00   0.31818877
8942.00   0.30909310
8944.00   0.29437896
8946.00   0.28829878
8948.00   0.28250455
8950.00   0.28147006
8952.00   0.29124151
8954.00   0.29483086
8956.00   0.28070156
8958.00   0.26034153
8960.00   0.25891127
8962.00   0.27456208
8964.00   0.27821207
8966.00   0.27588336
8968.00   0.27470668
8970.00   0.27854188
8972.00   0.28320477
8974.00   0.28261258
8976.00   0.27966545
8978.00   0.28142383
8980.00   0.28796557
8982.00   0.29011106
8984.00   0.28913927
8986.00   0.29065496
8988.00   0.29868061
8990.00   0.31256902
8992.00   0.31492101
8994.00   0.30652735
8996.00   0.30398174
8998.00   0.30595098
9000.00   0.30689232
9002.00   0.30715900
9004.00   0.30575846
9006.00   0.29931430
9008.00   0.28600887
9010.00   0.28356005
9012.00   0.28768465
9014.00   0.29473831
9016.00   0.30818772
9018.00   0.32103541
9020.00   0.32531755
9022.00   0.32462531
9024.00   0.32596508
9026.00   0.32908459
9028.00   0.32808015
9030.00   0.31906822
9032.00   0.30805376
9034.00   0.30339595
9036.00   0.29897296
9038.00   0.30143566
9040.00   0.31285381
9042.00   0.32233967
9044.00   0.33111012
9046.00   0.33368941
9048.00   0.32473674
9050.00   0.30410977
9052.00   0.29556887
9054.00   0.29131497
9056.00   0.29489619
9058.00   0.31024838
9060.00   0.31890182
9062.00   0.31483248
9064.00   0.30475070
9066.00   0.29934639
9068.00   0.29380675
9070.00   0.29547882
9072.00   0.30642059
9074.00   0.31278938
9076.00   0.31322676
9078.00   0.31224591
9080.00   0.31582424
9082.00   0.32224129
9084.00   0.32554348
9086.00   0.33079863
9088.00   0.32895255
9090.00   0.31515755
9092.00   0.29951066
9094.00   0.29342602
9096.00   0.29385785
9098.00   0.29303934
9100.00   0.29551295
9102.00   0.29405817
9104.00   0.28770330
9106.00   0.28358161
9108.00   0.28655116
9110.00   0.29414029
9112.00   0.29975416
9114.00   0.30617100
9116.00   0.31002164
9118.00   0.31140957
9120.00   0.31524183
9122.00   0.32139401
9124.00   0.33010164
9126.00   0.33667563
9128.00   0.34388573
9130.00   0.34260699
9132.00   0.33031422
9134.00   0.32267958
9136.00   0.32217450
9138.00   0.32669158
9140.00   0.33396091
9142.00   0.34608318
9144.00   0.34757462
9146.00   0.33908004
9148.00   0.33458994
9150.00   0.33166398
9152.00   0.33125222
9154.00   0.33470167
9156.00   0.34042980
9158.00   0.33688033
9160.00   0.32459532
9162.00   0.31533266
9164.00   0.30305430
9166.00   0.29570639
9168.00   0.30000532
9170.00   0.31055922
9172.00   0.30956871
9174.00   0.29839318
9176.00   0.29563864
9178.00   0.29795097
9180.00   0.30183700
9182.00   0.30619247
9184.00   0.30998155
9186.00   0.31163191
9188.00   0.31006818
9190.00   0.31449404
9192.00   0.32689604
9194.00   0.33424242
9196.00   0.33084983
9198.00   0.32262402
9200.00   0.32626125
9202.00   0.34327836
9204.00   0.34994572
9206.00   0.35270736
9208.00   0.35276505
9210.00   0.35005438
9212.00   0.34345233
9214.00   0.33803181
9216.00   0.33389662
9218.00   0.33971697
9220.00   0.35988794
9222.00   0.37036365
9224.00   0.37379381
9226.00   0.37261385
9228.00   0.36991112
9230.00   0.36474258
9232.00   0.35855855
9234.00   0.35069786
9236.00   0.34223175
9238.00   0.33230984
9240.00   0.32116866
9242.00   0.30848252
9244.00   0.29622248
9246.00   0.28883288
9248.00   0.28224290
9250.00   0.28725015
9252.00   0.30675969
9254.00   0.32323302
9256.00   0.33686285
9258.00   0.34676921
9260.00   0.35030971
9262.00   0.34886140
9264.00   0.34715921
9266.00   0.34190246
9268.00   0.33763470
9270.00   0.33415687
9272.00   0.33344190
9274.00   0.33726844
9276.00   0.34610240
9278.00   0.34618326
9280.00   0.33754657
9282.00   0.33392487
9284.00   0.33533180
9286.00   0.33845291
9288.00   0.34066544
9290.00   0.34135611
9292.00   0.33602001
9294.00   0.31757419
9296.00   0.31799421
9298.00   0.34011669
9300.00   0.35561985
9302.00   0.34788263
9304.00   0.33084019
9306.00   0.34652179
9308.00   0.39445220
9310.00   0.41710767
9312.00   0.44120423
9314.00   0.43655306
9316.00   0.37578404
9318.00   0.29147884
9320.00   0.26297934
9322.00   0.27208553
9324.00   0.29266603
9326.00   0.35747793
9328.00   0.38712321
9330.00   0.38409509
9332.00   0.36798556
9334.00   0.34276591
9336.00   0.29569363
9338.00   0.27698535
9340.00   0.27762882
9342.00   0.27843603
9344.00   0.27576384
9346.00   0.27820127
9348.00   0.28962938
9350.00   0.30261138
9352.00   0.31401221
9354.00   0.33179179
9356.00   0.34110607
9358.00   0.33581926
9360.00   0.32521259
9362.00   0.32467802
9364.00   0.33792587
9366.00   0.34793745
9368.00   0.35535881
9370.00   0.35622330
9372.00   0.34358086
9374.00   0.35055251
9376.00   0.39001301
9378.00   0.43411265
9380.00   0.43478189
9382.00   0.40692322
9384.00   0.37411872
9386.00   0.30470699
9388.00   0.27098754
9390.00   0.28392889
9392.00   0.31110157
9394.00   0.32071468
9396.00   0.32498248
9398.00   0.32747597
9400.00   0.32463290
9402.00   0.32390106
9404.00   0.32369775
9406.00   0.32912970
9408.00   0.34123451
9410.00   0.35783288
9412.00   0.36824597
9414.00   0.38424623
9416.00   0.37645389
9418.00   0.34178358
9420.00   0.30966131
9422.00   0.28475623
9424.00   0.26846503
9426.00   0.27533617
9428.00   0.30827960
9430.00   0.32945576
9432.00   0.34854148
9434.00   0.36833398
9436.00   0.38850366
9438.00   0.40768544
9440.00   0.43454532
9442.00   0.47701144
9444.00   0.47529446
9446.00   0.43494250
9448.00   0.39739396
9450.00   0.34397541
9452.00   0.30076990
9454.00   0.30598790
9456.00   0.34869601
9458.00   0.35499038
9460.00   0.34454287
9462.00   0.33175516
9464.00   0.30475046
9466.00   0.29359780
9468.00   0.31318161
9470.00   0.35172515
9472.00   0.37448087
9474.00   0.40518329
9476.00   0.39913322
9478.00   0.35628778
9480.00   0.31814605
9482.00   0.27805981
9484.00   0.23917342
9486.00   0.24413907
9488.00   0.30176467
9490.00   0.30839624
9492.00   0.27728082
9494.00   0.25251475
9496.00   0.24135901
9498.00   0.23252961
9500.00   0.22753004
9502.00   0.23465466
9504.00   0.24624496
9506.00   0.26402362
9508.00   0.28497151
9510.00   0.32304943
9512.00   0.35647590
9514.00   0.35510248
9516.00   0.32288572
9518.00   0.32627571
9520.00   0.35845932
9522.00   0.37287377
9524.00   0.37472798
9526.00   0.37389928
9528.00   0.36727650
9530.00   0.35342802
9532.00   0.35587096
9534.00   0.37442739
9536.00   0.38118938
9538.00   0.38348585
9540.00   0.38292058
9542.00   0.37420061
9544.00   0.36247943
9546.00   0.35081625
9548.00   0.33756645
9550.00   0.31277809
9552.00   0.26632375
9554.00   0.24114241
9556.00   0.24316852
9558.00   0.25596007
9560.00   0.26709681
9562.00   0.28178290
9564.00   0.30825338
9566.00   0.35813914
9568.00   0.38915789
9570.00   0.39646423
9572.00   0.39072601
9574.00   0.38726364
9576.00   0.38508399
9578.00   0.38060661
9580.00   0.37998360
9582.00   0.36319359
9584.00   0.32631963
9586.00   0.29645160
9588.00   0.29195713
9590.00   0.31342675
9592.00   0.31521221
9594.00   0.30063150
9596.00   0.29544146
9598.00   0.31706608
9600.00   0.33123140
9602.00   0.31207679
9604.00   0.27619597
9606.00   0.25330522
9608.00   0.22465310
9610.00   0.22087488
9612.00   0.24344359
9614.00   0.26648860
9616.00   0.28896242
9618.00   0.30622916
9620.00   0.30241905
9622.00   0.27476484
9624.00   0.27624568
9626.00   0.30673631
9628.00   0.31538536
9630.00   0.29584902
9632.00   0.27584456
9634.00   0.27844758
9636.00   0.29712032
9638.00   0.30426818
9640.00   0.30865522
9642.00   0.30957046
9644.00   0.30601402
9646.00   0.30302899
9648.00   0.31394643
9650.00   0.33988994
9652.00   0.33796722
9654.00   0.30856250
9656.00   0.29803751
9658.00   0.29729043
9660.00   0.30029695
9662.00   0.31328802
9664.00   0.33267355
9666.00   0.34435451
9668.00   0.35691136
9670.00   0.35459033
9672.00   0.33579851
9674.00   0.31790859
9676.00   0.30072105
9678.00   0.28728697
9680.00   0.28235893
9682.00   0.28054029
9684.00   0.28610447
9686.00   0.30203675
9688.00   0.31889604
9690.00   0.33786139
9692.00   0.34423459
9694.00   0.32860544
9696.00   0.29349668
9698.00   0.28086494
9700.00   0.27821945
9702.00   0.28135202
9704.00   0.29397147
9706.00   0.30621813
9708.00   0.31272415
9710.00   0.31601885
9712.00   0.31292386
9714.00   0.29644559
9716.00   0.29553229
9718.00   0.31135631
9720.00   0.32068892
9722.00   0.31501925
9724.00   0.30364075
9726.00   0.30123091
9728.00   0.30889037
9730.00   0.30534098
9732.00   0.28494754
9734.00   0.27385563
9736.00   0.29334173
9738.00   0.32033798
9740.00   0.31207946
9742.00   0.27890676
9744.00   0.27172260
9746.00   0.28373182
9748.00   0.28320315
9750.00   0.27521470
9752.00   0.26657781
9754.00   0.25672435
9756.00   0.24281011
9758.00   0.24404754
9760.00   0.26428066
9762.00   0.27240964
9764.00   0.26454418
9766.00   0.25958454
9768.00   0.27223040
9770.00   0.29155178
9772.00   0.30446736
9774.00   0.32183258
9776.00   0.32465771
9778.00   0.30937311
9780.00   0.29725195
9782.00   0.28817081
9784.00   0.27647246
9786.00   0.27168962
9788.00   0.27139372
9790.00   0.28001815
9792.00   0.30275670
9794.00   0.31785640
9796.00   0.32409755
9798.00   0.32262831
9800.00   0.31713174
9802.00   0.30114567
9804.00   0.29816492
9806.00   0.30265177
9808.00   0.31243595
9810.00   0.32564332
9812.00   0.33224923
9814.00   0.32750993
9816.00   0.30953789
9818.00   0.30276237
9820.00   0.30138679
9822.00   0.30309658
9824.00   0.30217218
9826.00   0.29588699
9828.00   0.28635411
9830.00   0.27172180
9832.00   0.27037074
9834.00   0.28118025
9836.00   0.28906668
9838.00   0.29717441
9840.00   0.30126344
9842.00   0.30246775
9844.00   0.30080854
9846.00   0.29500244
9848.00   0.28335961
9850.00   0.27985400
9852.00   0.28142343
9854.00   0.28299467
9856.00   0.28278892
9858.00   0.28333166
9860.00   0.29425019
9862.00   0.31828605
9864.00   0.32400554
9866.00   0.32281047
9868.00   0.30913197
9870.00   0.27215354
9872.00   0.23852474
9874.00   0.23943987
9876.00   0.27010544
9878.00   0.28461437
9880.00   0.30455603
9882.00   0.30480313
9884.00   0.28431207
9886.00   0.26653751
9888.00   0.26657329
9890.00   0.28542373
9892.00   0.29701914
9894.00   0.31865107
9896.00   0.31006495
9898.00   0.26653815
9900.00   0.24239771
9902.00   0.25929118
9904.00   0.30345823
9906.00   0.34909631
9908.00   0.42816846
9910.00   0.43130286
9912.00   0.36140518
9914.00   0.30744770
9916.00   0.25917435
9918.00   0.21875794
9920.00   0.22553150
9922.00   0.28541708
9924.00   0.29667503
9926.00   0.28236723
9928.00   0.26582435
9930.00   0.24452048
9932.00   0.22896995
9934.00   0.22974749
9936.00   0.24293651
9938.00   0.24500077
9940.00   0.24995473
9942.00   0.23593219
9944.00   0.19844584
9946.00   0.17290589
9948.00   0.16899873
9950.00   0.18413156
9952.00   0.19204749
9954.00   0.20011760
9956.00   0.20232235
9958.00   0.21294564
9960.00   0.21900968
9962.00   0.22015475
9964.00   0.23471332
9966.00   0.23268579
9968.00   0.20849109
9970.00   0.20166953
9972.00   0.20493885
9974.00   0.21714605
9976.00   0.24701622
9978.00   0.28352474
9980.00   0.29592755
9982.00   0.28872435
9984.00   0.28342676
9986.00   0.27003271
9988.00   0.26119015
9990.00   0.25135255
9992.00   0.24528154
9994.00   0.25812842
9996.00   0.29606652
9998.00   0.29938751
10000.00   0.26320090
10002.00   0.25998896
10004.00   0.30135131
10006.00   0.33323240
10008.00   0.33579288
10010.00   0.33611961
10012.00   0.30633308
10014.00   0.22048648
10016.00   0.18402195
10018.00   0.19401232
10020.00   0.22003791
10022.00   0.24537677
10024.00   0.25650436
10026.00   0.25036059
10028.00   0.23146219
10030.00   0.23631950
10032.00   0.26126485
10034.00   0.26025737
10036.00   0.22546368
10038.00   0.19165519
10040.00   0.21645361
10042.00   0.30231480
10044.00   0.32761385
10046.00   0.31594324
10048.00   0.30471227
10050.00   0.29996855
10052.00   0.29425025
10054.00   0.29320018
10056.00   0.30922094
10058.00   0.29279871
10060.00   0.22727258
10062.00   0.21122078
10064.00   0.25751611
10066.00   0.29352556
10068.00   0.27585594
10070.00   0.23372535
10072.00   0.24791753
10074.00   0.31913586
10076.00   0.34539935
10078.00   0.34484147
10080.00   0.33446509
10082.00   0.32403147
10084.00   0.31920855
10086.00   0.30926648
10088.00   0.28867234
10090.00   0.27703884
10092.00   0.28340408
10094.00   0.27704942
10096.00   0.23241794
10098.00   0.17945641
10100.00   0.18526011
10102.00   0.23751415
10104.00   0.26239368
10106.00   0.29007468
10108.00   0.29892325
10110.00   0.27760717
10112.00   0.26123060
10114.00   0.26191851
10116.00   0.25305130
10118.00   0.26075124
10120.00   0.30297321
10122.00   0.31084561
10124.00   0.26761241
10126.00   0.20638225
10128.00   0.15052551
10130.00   0.10076913
10132.00   0.11445447
10134.00   0.21734603
10136.00   0.24203429
10138.00   0.20959980
10140.00   0.18841872
10142.00   0.19711984
10144.00   0.22487768
10146.00   0.26643234
10148.00   0.34333141
10150.00   0.37996602
10152.00   0.39923264
10154.00   0.38834910
10156.00   0.33337125
10158.00   0.26293825
10160.00   0.24511199
10162.00   0.27324259
10164.00   0.26671242
10166.00   0.23555329
10168.00   0.21706714
10170.00   0.22807529
10172.00   0.24682225
10174.00   0.24410278
10176.00   0.23410337
10178.00   0.24469312
10180.00   0.28153376
10182.00   0.29265988
10184.00   0.28286856
10186.00   0.27764055
10188.00   0.28075838
10190.00   0.28521441
10192.00   0.28958909
10194.00   0.31845955
10196.00   0.28442178
10198.00   0.16220471
10200.00   0.10335910
10202.00   0.16454556
10204.00   0.25394777
10206.00   0.23154522
10208.00   0.11840457
10210.00   0.10173149
10212.00   0.14514259
10214.00   0.16954120
10216.00   0.19436081
10218.00   0.21376238
10220.00   0.21177078
10222.00   0.19925697
10224.00   0.22136291
10226.00   0.28715996
10228.00   0.32109664
10230.00   0.31382573
10232.00   0.26994686
10234.00   0.24577840
10236.00   0.25461099
10238.00   0.23519368
10240.00   0.17954923
10242.00   0.15678969
10244.00   0.19995880
10246.00   0.22786968
10248.00   0.18396520
10250.00   0.10901260
10252.00   0.09556765
10254.00   0.12573576
10256.00   0.13882533
10258.00   0.16337003
10260.00   0.18929394
10262.00   0.19192141
10264.00   0.16939982
10266.00   0.16524365
10268.00   0.17501550
10270.00   0.18399831
10272.00   0.18492119
10274.00   0.19126904
10276.00   0.21673116
10278.00   0.25216369
10280.00   0.29184325
10282.00   0.35859802
10284.00   0.38435392
10286.00   0.40316904
10288.00   0.36999357
10290.00   0.23999097
10292.00   0.11177188
10294.00   0.13013456
10296.00   0.25667717
10298.00   0.26180886
10300.00   0.16787779
10302.00   0.14662654
10304.00   0.18130128
10306.00   0.21976571
10308.00   0.24692246
10310.00   0.26125658
10312.00   0.24744686
10314.00   0.18799201
10316.00   0.17710733
10318.00   0.19178349
10320.00   0.19386207
10322.00   0.18472036
10324.00   0.16553643
10326.00   0.15222749
10328.00   0.14473978
10330.00   0.15073511
10332.00   0.17813750
10334.00   0.17520218
10336.00   0.13487550
10338.00   0.07641176
10340.00   0.05324949
10342.00   0.05679326
10344.00   0.05851045
10346.00   0.06807243
10348.00   0.07808886
10350.00   0.09230211
10352.00   0.10555886
10354.00   0.10787119
10356.00   0.08811480
10358.00   0.08608634
10360.00   0.08494758
10362.00   0.10848295
10364.00   0.15963680
10366.00   0.19311772
10368.00   0.17137963
10370.00   0.09932430
10372.00   0.07983668
10374.00   0.09021220
10376.00   0.10827360
10378.00   0.12723892
10380.00   0.12981238
10382.00   0.12523066
10384.00   0.10624017
10386.00   0.10374617
10388.00   0.12440881
10390.00   0.11688816
10392.00   0.06979952
10394.00   0.04580827
10396.00   0.05649825
10398.00   0.07127898
10400.00   0.07393855
10402.00   0.07802792
10404.00   0.08018129
10406.00   0.07466423
10408.00   0.08014142
10410.00   0.09581736
10412.00   0.10264018
10414.00   0.11161521
10416.00   0.13202531
10418.00   0.15439300
10420.00   0.20604774
10422.00   0.20662221
10424.00   0.13752918
10426.00   0.06984863
10428.00   0.06022620
10430.00   0.07882658
10432.00   0.07365420
10434.00   0.05532523
10436.00   0.04925583
10438.00   0.05270386
10440.00   0.06188323
10442.00   0.06473074
10444.00   0.06169216
10446.00   0.06217307
10448.00   0.06401271
10450.00   0.05678206
10452.00   0.03590077
10454.00   0.02947074
10456.00   0.03905606
10458.00   0.06550675
10460.00   0.09425535
10462.00   0.13819785
10464.00   0.13673433
10466.00   0.07896885
10468.00   0.05267090
10470.00   0.07935654
10472.00   0.11498461
10474.00   0.10933270
10476.00   0.08148482
10478.00   0.06203691
10480.00   0.02942471
10482.00   0.01900522
10484.00   0.03623302
10486.00   0.05484989
10488.00   0.05760338
10490.00   0.05461996
10492.00   0.06568156
10494.00   0.09558783
10496.00   0.10520829
10498.00   0.09969757
10500.00   0.08683078
10502.00   0.06977501
10504.00   0.04998605
10506.00   0.05183927
10508.00   0.08102813
10510.00   0.08721635
10512.00   0.07618573
10514.00   0.06239442
10516.00   0.04904493
10518.00   0.03558824
10520.00   0.03167962
10522.00   0.03945178
10524.00   0.03772743
10526.00   0.02672241
10528.00   0.02299508
10530.00   0.03014349
10532.00   0.04112919
10534.00   0.05171292
10536.00   0.06645693
10538.00   0.06799464
10540.00   0.05069521
10542.00   0.04856485
10544.00   0.06641119
10546.00   0.08701877
10548.00   0.09212182
10550.00   0.08782669
10552.00   0.08193826
10554.00   0.06539860
10556.00   0.05895362
10558.00   0.06532023
10560.00   0.07118206
10562.00   0.06658398
10564.00   0.05529606
10566.00   0.04759522
10568.00   0.03829672
10570.00   0.03699838
10572.00   0.04221364
10574.00   0.04965415
10576.00   0.06014263
10578.00   0.06776227
10580.00   0.06372705
10582.00   0.04546814
10584.00   0.03973628
10586.00   0.04033885
10588.00   0.04367234
10590.00   0.04868408
10592.00   0.05371262
10594.00   0.05274442
10596.00   0.04393948
10598.00   0.04216811
10600.00   0.04256946
10602.00   0.04694843
10604.00   0.05796009
10606.00   0.06665646
10608.00   0.06484156
10610.00   0.05688447
10612.00   0.05255069
10614.00   0.04732335
10616.00   0.04485091
10618.00   0.04467734
10620.00   0.04446251
10622.00   0.04754632
10624.00   0.05623034
10626.00   0.05623659
10628.00   0.04580328
10630.00   0.04204657
10632.00   0.04621660
10634.00   0.04893273
10636.00   0.04488874
10638.00   0.04004059
10640.00   0.04029837
10642.00   0.04638975
10644.00   0.04571688
10646.00   0.03892603
10648.00   0.03409794
10650.00   0.03322999
10652.00   0.03410097
10654.00   0.03612943
10656.00   0.04129034
10658.00   0.04450804
10660.00   0.04864152
10662.00   0.04895081
10664.00   0.04597334
10666.00   0.04145859
10668.00   0.03678626
10670.00   0.03467947
10672.00   0.04074806
10674.00   0.06164659
10676.00   0.06584730
10678.00   0.05913128
10680.00   0.05117031
10682.00   0.04546843
10684.00   0.04163886
10686.00   0.03482364
10688.00   0.02162429
10690.00   0.01977752
10692.00   0.03088268
10694.00   0.03788020
10696.00   0.03848767
10698.00   0.03699888
10700.00   0.03483776
10702.00   0.02978485
10704.00   0.03242248
10706.00   0.04300338
10708.00   0.05004693
10710.00   0.05552201
10712.00   0.06077670
10714.00   0.06302479
10716.00   0.06117692
10718.00   0.05427475
10720.00   0.03370182
10722.00   0.02858276
10724.00   0.03969405
10726.00   0.05421999
10728.00   0.06473671
10730.00   0.07324900
10732.00   0.06773823
10734.00   0.03999598
10736.00   0.03336661
10738.00   0.03784081
10740.00   0.04462455
10742.00   0.05691347
10744.00   0.07584218
10746.00   0.08109856
10748.00   0.07468324
10750.00   0.06803281
10752.00   0.05459796
10754.00   0.05069112
10756.00   0.06597503
10758.00   0.08728860
10760.00   0.08188870
10762.00   0.05166245
10764.00   0.05121280
10766.00   0.07357356
10768.00   0.09014199
10770.00   0.10439140
10772.00   0.11311145
10774.00   0.10521942
10776.00   0.07828759
10778.00   0.07116460
10780.00   0.08161961
10782.00   0.07870761
10784.00   0.05753237
10786.00   0.03917586
10788.00   0.03902857
10790.00   0.05000098
10792.00   0.05856167
10794.00   0.07370116
10796.00   0.08384852
10798.00   0.08963187
10800.00   0.08001016
10802.00   0.05900695
10804.00   0.03428713
10806.00   0.02353501
10808.00   0.01826679
10810.00   0.02064850
10812.00   0.03678222
10814.00   0.05191505
10816.00   0.06140201
10818.00   0.06573318
10820.00   0.06433956
10822.00   0.05582567
10824.00   0.05186228
10826.00   0.04595739
10828.00   0.04789805
10830.00   0.05936724
10832.00   0.06764774
10834.00   0.06637202
10836.00   0.05850012
10838.00   0.04844194
10840.00   0.02788389
10842.00   0.01854827
10844.00   0.01653256
10846.00   0.02430579
10848.00   0.04357559
10850.00   0.06999277
10852.00   0.06999277
