# File created by shivutils (I.Shivvers)
# Blotched regions marked with a #.
# wl(A)   flm    er(optional)
3426.00   1.00747895
3428.00   1.13677311
3430.00   1.15766251
3432.00   0.76410115
3434.00   0.56564415
3436.00   1.03441668
3438.00   0.59756696
3440.00   0.72086555
3442.00   0.95000911
3444.00   1.25077295
3446.00   0.88741291
3448.00   0.81175137
3450.00   1.34387922
3452.00   1.40576565
3454.00   1.18544781
3456.00   1.12309277
3458.00   1.44097400
3460.00   1.78128064
3462.00   1.35412788
3464.00   1.42630434
3466.00   1.39396131
3468.00   1.36464310
3470.00   1.14858425
3472.00   1.14403260
3474.00   1.19769633
3476.00   1.41546202
3478.00   1.12370408
3480.00   1.34436941
3482.00   1.22005355
3484.00   1.29034090
3486.00   1.30463552
3488.00   1.32405603
3490.00   1.13447249
3492.00   1.16585433
3494.00   1.26507127
3496.00   1.17979193
3498.00   1.38278270
3500.00   1.05376959
3502.00   0.87874740
3504.00   1.47394156
3506.00   0.92183888
3508.00   0.82046908
3510.00   1.08220637
3512.00   1.05341375
3514.00   1.36577153
3516.00   1.01822293
3518.00   1.42015314
3520.00   1.24014878
3522.00   1.15880990
3524.00   1.22129488
3526.00   1.35466075
3528.00   1.23761201
3530.00   0.96942449
3532.00   1.23050427
3534.00   1.47423255
3536.00   1.19805241
3538.00   1.17215478
3540.00   1.15359104
3542.00   1.16704702
3544.00   1.18540156
3546.00   1.19214904
3548.00   1.12976360
3550.00   1.40651703
3552.00   1.22902727
3554.00   1.06599736
3556.00   1.22895229
3558.00   1.45694757
3560.00   1.45452201
3562.00   1.38348889
3564.00   1.33975470
3566.00   1.45026016
3568.00   1.44846404
3570.00   1.00324512
3572.00   1.32428002
3574.00   1.46623099
3576.00   1.24884045
3578.00   1.43820882
3580.00   1.14544857
3582.00   1.52423644
3584.00   1.40488207
3586.00   1.28228295
3588.00   1.45044851
3590.00   1.32205343
3592.00   1.27893162
3594.00   1.37113774
3596.00   1.08317399
3598.00   1.26034307
3600.00   1.43031943
3602.00   1.54868877
3604.00   1.36266804
3606.00   1.19189310
3608.00   1.36789632
3610.00   1.18815410
3612.00   1.15798378
3614.00   1.01889241
3616.00   1.24756348
3618.00   1.33547354
3620.00   1.36117375
3622.00   1.23044479
3624.00   1.17591548
3626.00   1.35925102
3628.00   1.23963046
3630.00   1.31475234
3632.00   1.35480750
3634.00   1.36934507
3636.00   1.17516696
3638.00   1.07368910
3640.00   1.27672338
3642.00   1.34592152
3644.00   1.25583291
3646.00   1.23691404
3648.00   1.37277710
3650.00   1.41228616
3652.00   1.32025528
3654.00   1.30979633
3656.00   1.24826598
3658.00   1.16051912
3660.00   1.31934905
3662.00   1.41561687
3664.00   1.46004796
3666.00   1.40391195
3668.00   1.33197284
3670.00   1.51829398
3672.00   1.44081748
3674.00   1.34055889
3676.00   1.30969131
3678.00   1.39506638
3680.00   1.27820158
3682.00   1.46765697
3684.00   1.51021278
3686.00   1.50578952
3688.00   1.26455176
3690.00   1.53102076
3692.00   1.54361248
3694.00   1.43410504
3696.00   1.44822848
3698.00   1.54118299
3700.00   1.61552167
3702.00   1.66825867
3704.00   1.48543417
3706.00   1.53679121
3708.00   1.74198818
3710.00   1.55905318
3712.00   1.58560765
3714.00   1.61794937
3716.00   1.78110862
3718.00   1.72551191
3720.00   1.75526118
3722.00   1.58272827
3724.00   1.48980510
3726.00   1.31360650
3728.00   1.53741145
3730.00   1.43552089
3732.00   1.34601307
3734.00   1.35568714
3736.00   1.31830978
3738.00   1.41562951
3740.00   1.14538980
3742.00   1.25052774
3744.00   1.05506182
3746.00   1.07029235
3748.00   0.97013688
3750.00   0.95753944
3752.00   1.04162836
3754.00   0.87003732
3756.00   0.87049389
3758.00   0.77524835
3760.00   0.63337523
3762.00   0.69281381
3764.00   0.63020790
3766.00   0.70540887
3768.00   0.65777421
3770.00   0.55491984
3772.00   0.54995704
3774.00   0.48133194
3776.00   0.56449461
3778.00   0.43611044
3780.00   0.30170640
3782.00   0.39179003
3784.00   0.43314439
3786.00   0.39543897
3788.00   0.50462240
3790.00   0.46726972
3792.00   0.40488058
3794.00   0.48087925
3796.00   0.47075906
3798.00   0.50868201
3800.00   0.51510781
3802.00   0.42741010
3804.00   0.49209127
3806.00   0.46040639
3808.00   0.49407277
3810.00   0.51572084
3812.00   0.52422345
3814.00   0.49631435
3816.00   0.36798444
3818.00   0.59331757
3820.00   0.50300813
3822.00   0.40991250
3824.00   0.41280654
3826.00   0.44093084
3828.00   0.45054013
3830.00   0.54925162
3832.00   0.55559915
3834.00   0.49058723
3836.00   0.58968115
3838.00   0.53264856
3840.00   0.53165567
3842.00   0.57008725
3844.00   0.61345786
3846.00   0.63382059
3848.00   0.65725899
3850.00   0.66909003
3852.00   0.70804566
3854.00   0.72615516
3856.00   0.75887740
3858.00   0.82627583
3860.00   0.73369926
3862.00   0.76851285
3864.00   0.86271197
3866.00   0.91899782
3868.00   1.01714849
3870.00   1.04381466
3872.00   1.03473711
3874.00   1.05925679
3876.00   1.11442840
3878.00   1.12384009
3880.00   1.13334024
3882.00   1.22246575
3884.00   1.19658518
3886.00   1.22644627
3888.00   1.29065406
3890.00   1.25295711
3892.00   1.36598110
3894.00   1.48278189
3896.00   1.42042351
3898.00   1.45856035
3900.00   1.63701737
3902.00   1.73056424
3904.00   1.64060664
3906.00   1.68357706
3908.00   1.73071861
3910.00   1.88065541
3912.00   1.92164040
3914.00   1.90243638
3916.00   2.05882502
3918.00   2.09628677
3920.00   1.97470164
3922.00   2.13189459
3924.00   2.07628107
3926.00   2.07382226
3928.00   2.19722509
3930.00   2.21837020
3932.00   2.31874108
3934.00   2.17649674
3936.00   2.27907705
3938.00   2.35303569
3940.00   2.22349119
3942.00   2.31552315
3944.00   2.34322691
3946.00   2.25423026
3948.00   2.34342909
3950.00   2.29128194
3952.00   2.39333391
3954.00   2.26917791
3956.00   2.29514098
3958.00   2.30981946
3960.00   2.35960650
3962.00   2.44797182
3964.00   2.43286276
3966.00   2.24908280
3968.00   2.10012627
3970.00   2.32634449
3972.00   2.41158319
3974.00   2.32799959
3976.00   2.45723319
3978.00   2.50551057
3980.00   2.45400310
3982.00   2.50065899
3984.00   2.57240248
3986.00   2.51396513
3988.00   2.55108142
3990.00   2.33775997
3992.00   2.58035731
3994.00   2.50984597
3996.00   2.57461333
3998.00   2.46671987
4000.00   2.50155163
4002.00   2.35192704
4004.00   2.32655168
4006.00   2.47351575
4008.00   2.38444614
4010.00   2.44108534
4012.00   2.46964359
4014.00   2.38007617
4016.00   2.38018823
4018.00   2.45496106
4020.00   2.42405152
4022.00   2.43350101
4024.00   2.33089232
4026.00   2.23369122
4028.00   2.28851151
4030.00   2.26851463
4032.00   2.31084681
4034.00   2.09975624
4036.00   2.12490129
4038.00   2.06534386
4040.00   2.14658213
4042.00   1.99493229
4044.00   2.15187860
4046.00   2.16388535
4048.00   2.07803655
4050.00   1.92589164
4052.00   2.01068902
4054.00   1.84648144
4056.00   1.90048754
4058.00   1.82638419
4060.00   1.91601729
4062.00   1.83850205
4064.00   1.74907064
4066.00   1.82732642
4068.00   1.83454573
4070.00   1.74735677
4072.00   1.76991272
4074.00   1.70191991
4076.00   1.69149387
4078.00   1.68066299
4080.00   1.63804924
4082.00   1.65510523
4084.00   1.68752420
4086.00   1.56299770
4088.00   1.58758807
4090.00   1.58689249
4092.00   1.66046357
4094.00   1.68474793
4096.00   1.66724634
4098.00   1.63382626
4100.00   1.63105798
4102.00   1.55910325
4104.00   1.51226056
4106.00   1.57144177
4108.00   1.70253170
4110.00   1.57260013
4112.00   1.58452880
4114.00   1.57981241
4116.00   1.55171895
4118.00   1.47457612
4120.00   1.49646950
4122.00   1.47785497
4124.00   1.45055568
4126.00   1.50447571
4128.00   1.36361432
4130.00   1.46114230
4132.00   1.36258900
4134.00   1.34398544
4136.00   1.32598805
4138.00   1.49179995
4140.00   1.41876125
4142.00   1.36261368
4144.00   1.49198711
4146.00   1.56320632
4148.00   1.45586812
4150.00   1.49174321
4152.00   1.49995184
4154.00   1.53138602
4156.00   1.63163412
4158.00   1.57628560
4160.00   1.60115874
4162.00   1.79619753
4164.00   1.69841158
4166.00   1.62386608
4168.00   1.71411550
4170.00   1.65405571
4172.00   1.70717037
4174.00   1.69368994
4176.00   1.69160092
4178.00   1.68318677
4180.00   1.70738161
4182.00   1.61634636
4184.00   1.65346861
4186.00   1.68449140
4188.00   1.74886656
4190.00   1.63546824
4192.00   1.75245178
4194.00   1.69230700
4196.00   1.67322731
4198.00   1.76973176
4200.00   1.68012118
4202.00   1.64714754
4204.00   1.63188481
4206.00   1.62996876
4208.00   1.78124273
4210.00   1.67510557
4212.00   1.53995430
4214.00   1.72591138
4216.00   1.72039890
4218.00   1.70674324
4220.00   1.77055907
4222.00   1.69289470
4224.00   1.72348094
4226.00   1.58815813
4228.00   1.61921453
4230.00   1.69875479
4232.00   1.71357358
4234.00   1.62236977
4236.00   1.67952013
4238.00   1.70829701
4240.00   1.73502433
4242.00   1.72973657
4244.00   1.66019857
4246.00   1.67516375
4248.00   1.83630514
4250.00   1.74835777
4252.00   1.71989048
4254.00   1.75279832
4256.00   1.68843877
4258.00   1.74400342
4260.00   1.81119668
4262.00   1.73629534
4264.00   1.72857749
4266.00   1.81970298
4268.00   1.68843281
4270.00   1.74684441
4272.00   1.77379656
4274.00   1.81515789
4276.00   1.77109182
4278.00   1.77849710
4280.00   1.72533453
4282.00   1.74785495
4284.00   1.81465089
4286.00   1.78346896
4288.00   1.73618388
4290.00   1.85250580
4292.00   1.82391620
4294.00   1.90382719
4296.00   1.91687202
4298.00   1.86523390
4300.00   1.81263041
4302.00   1.80317235
4304.00   1.89992678
4306.00   1.90767086
4308.00   1.85341513
4310.00   1.77127182
4312.00   1.85176587
4314.00   1.86102831
4316.00   1.84807098
4318.00   1.94416249
4320.00   1.93938339
4322.00   1.87253213
4324.00   1.85200262
4326.00   1.81220281
4328.00   1.93559301
4330.00   1.93055522
4332.00   1.88547599
4334.00   1.89836991
4336.00   1.90366936
4338.00   1.87459564
4340.00   1.81413436
4342.00   1.83953321
4344.00   1.81912720
4346.00   1.82219791
4348.00   1.80722773
4350.00   1.77294886
4352.00   1.79003155
4354.00   1.77690268
4356.00   1.65302563
4358.00   1.81675828
4360.00   1.68764734
4362.00   1.63081241
4364.00   1.63370490
4366.00   1.63269532
4368.00   1.69235241
4370.00   1.63164043
4372.00   1.59205711
4374.00   1.47461140
4376.00   1.47662151
4378.00   1.45100081
4380.00   1.40575492
4382.00   1.37778974
4384.00   1.31876123
4386.00   1.32827234
4388.00   1.24078882
4390.00   1.30532551
4392.00   1.28294778
4394.00   1.25383806
4396.00   1.24065292
4398.00   1.28295875
4400.00   1.23955297
4402.00   1.16533756
4404.00   1.17067873
4406.00   1.22456789
4408.00   1.17887771
4410.00   1.20844233
4412.00   1.17626762
4414.00   1.08790791
4416.00   1.20658052
4418.00   1.25822008
4420.00   1.26107526
4422.00   1.11927474
4424.00   1.15327525
4426.00   1.25005984
4428.00   1.19732845
4430.00   1.17281342
4432.00   1.22383213
4434.00   1.21031010
4436.00   1.17228568
4438.00   1.21269202
4440.00   1.23239219
4442.00   1.19902515
4444.00   1.17302871
4446.00   1.17618799
4448.00   1.28500795
4450.00   1.32640254
4452.00   1.25232267
4454.00   1.33743036
4456.00   1.31454039
4458.00   1.34736037
4460.00   1.38389635
4462.00   1.28406417
4464.00   1.28451610
4466.00   1.36035430
4468.00   1.38962376
4470.00   1.41905892
4472.00   1.35802984
4474.00   1.37172616
4476.00   1.36800575
4478.00   1.34886444
4480.00   1.50684309
4482.00   1.53740990
4484.00   1.53176737
4486.00   1.57235563
4488.00   1.58793128
4490.00   1.62853706
4492.00   1.59046543
4494.00   1.64358604
4496.00   1.65532768
4498.00   1.71026504
4500.00   1.70925224
4502.00   1.77622008
4504.00   1.76573431
4506.00   1.85139966
4508.00   1.83542705
4510.00   1.87130213
4512.00   1.93435526
4514.00   1.94939375
4516.00   2.05953717
4518.00   1.98735821
4520.00   2.02822781
4522.00   2.14714479
4524.00   2.19166565
4526.00   2.14687252
4528.00   2.12144923
4530.00   2.13169789
4532.00   2.11975026
4534.00   2.29348588
4536.00   2.09392476
4538.00   2.24897242
4540.00   2.27564478
4542.00   2.33336782
4544.00   2.32566047
4546.00   2.34124327
4548.00   2.34613085
4550.00   2.36582923
4552.00   2.39317179
4554.00   2.40291357
4556.00   2.42696738
4558.00   2.51986361
4560.00   2.46772146
4562.00   2.61145067
4564.00   2.51628327
4566.00   2.55284619
4568.00   2.62097836
4570.00   2.70737886
4572.00   2.65525508
4574.00   2.65159822
4576.00   2.63131452
4578.00   2.68415785
4580.00   2.73191762
4582.00   2.74662614
4584.00   2.66999269
4586.00   2.62886858
4588.00   2.69811726
4590.00   2.76718783
4592.00   2.75244713
4594.00   2.75505161
4596.00   2.75288129
4598.00   2.75095558
4600.00   2.70958209
4602.00   2.78673816
4604.00   2.69511175
4606.00   2.64460111
4608.00   2.67269754
4610.00   2.73773909
4612.00   2.74620819
4614.00   2.67144084
4616.00   2.67739677
4618.00   2.67962861
4620.00   2.62282825
4622.00   2.53326201
4624.00   2.55498624
4626.00   2.66058064
4628.00   2.68536210
4630.00   2.64444995
4632.00   2.59562349
4634.00   2.66423655
4636.00   2.50912094
4638.00   2.59933925
4640.00   2.63938284
4642.00   2.61180115
4644.00   2.66744900
4646.00   2.62003183
4648.00   2.53304362
4650.00   2.56744909
4652.00   2.58379102
4654.00   2.64373994
4656.00   2.57723331
4658.00   2.53821468
4660.00   2.44550419
4662.00   2.59290481
4664.00   2.56085300
4666.00   2.47115135
4668.00   2.47717595
4670.00   2.59597278
4672.00   2.51002240
4674.00   2.43425322
4676.00   2.57633805
4678.00   2.47762251
4680.00   2.49329853
4682.00   2.49898744
4684.00   2.54733324
4686.00   2.49663234
4688.00   2.41855860
4690.00   2.42041445
4692.00   2.34805989
4694.00   2.40444040
4696.00   2.41351461
4698.00   2.41397023
4700.00   2.33378649
4702.00   2.31256628
4704.00   2.31601548
4706.00   2.28391671
4708.00   2.28846312
4710.00   2.34293628
4712.00   2.27829719
4714.00   2.20957518
4716.00   2.22876072
4718.00   2.19272017
4720.00   2.19706726
4722.00   2.10556316
4724.00   2.11039162
4726.00   2.11146688
4728.00   2.08015513
4730.00   2.02484155
4732.00   1.98030186
4734.00   1.95747972
4736.00   2.00451350
4738.00   1.93561089
4740.00   1.91323113
4742.00   1.84799528
4744.00   1.83368075
4746.00   1.88769364
4748.00   1.79551470
4750.00   1.81441987
4752.00   1.76797938
4754.00   1.73337841
4756.00   1.63155651
4758.00   1.64551985
4760.00   1.56559741
4762.00   1.59988952
4764.00   1.51358843
4766.00   1.47334230
4768.00   1.45837367
4770.00   1.40148187
4772.00   1.40191150
4774.00   1.36471975
4776.00   1.33134305
4778.00   1.32233167
4780.00   1.26787066
4782.00   1.25473750
4784.00   1.24693739
4786.00   1.24737787
4788.00   1.23292792
4790.00   1.18770421
4792.00   1.29730487
4794.00   1.21811128
4796.00   1.16622818
4798.00   1.18118131
4800.00   1.18415952
4802.00   1.20376492
4804.00   1.13694525
4806.00   1.19314790
4808.00   1.14964235
4810.00   1.16413593
4812.00   1.20267904
4814.00   1.22208512
4816.00   1.19852257
4818.00   1.24630749
4820.00   1.21410608
4822.00   1.27276075
4824.00   1.28349543
4826.00   1.27089834
4828.00   1.25565839
4830.00   1.25749075
4832.00   1.21026134
4834.00   1.22695899
4836.00   1.25925708
4838.00   1.25346506
4840.00   1.33538926
4842.00   1.25105667
4844.00   1.33501673
4846.00   1.35500729
4848.00   1.31749749
4850.00   1.30608189
4852.00   1.29011369
4854.00   1.30248785
4856.00   1.23731196
4858.00   1.30097508
4860.00   1.25468922
4862.00   1.21721578
4864.00   1.24609649
4866.00   1.20595527
4868.00   1.16068649
4870.00   1.20527613
4872.00   1.18502474
4874.00   1.21138608
4876.00   1.27992225
4878.00   1.25125027
4880.00   1.21066022
4882.00   1.20339346
4884.00   1.19596756
4886.00   1.25327826
4888.00   1.24297976
4890.00   1.26112175
4892.00   1.31608760
4894.00   1.28094673
4896.00   1.30231297
4898.00   1.34578228
4900.00   1.27474785
4902.00   1.39534390
4904.00   1.38051343
4906.00   1.37641168
4908.00   1.39748871
4910.00   1.40501869
4912.00   1.39734089
4914.00   1.51071739
4916.00   1.51464295
4918.00   1.46678996
4920.00   1.57578766
4922.00   1.55169642
4924.00   1.59646320
4926.00   1.66837883
4928.00   1.64748836
4930.00   1.64017844
4932.00   1.68080628
4934.00   1.84945500
4936.00   1.82124758
4938.00   1.90515161
4940.00   1.93204021
4942.00   1.97527015
4944.00   1.91627455
4946.00   2.00298333
4948.00   1.94479132
4950.00   2.10607195
4952.00   2.08204508
4954.00   2.13146019
4956.00   2.13534546
4958.00   2.12325263
4960.00   2.14221978
4962.00   2.14954138
4964.00   2.16883779
4966.00   2.16067195
4968.00   2.14947605
4970.00   2.16523433
4972.00   2.08179116
4974.00   2.14957333
4976.00   2.04037642
4978.00   2.02849007
4980.00   1.99298692
4982.00   2.03736663
4984.00   1.99939322
4986.00   1.99133539
4988.00   1.94405675
4990.00   1.92734981
4992.00   1.84805143
4994.00   1.82333279
4996.00   1.82199812
4998.00   1.79570293
5000.00   1.69617665
5002.00   1.66586590
5004.00   1.64038968
5006.00   1.57072139
5008.00   1.56050992
5010.00   1.56658423
5012.00   1.55003917
5014.00   1.51722896
5016.00   1.43185425
5018.00   1.51186609
5020.00   1.45363939
5022.00   1.44811976
5024.00   1.36337650
5026.00   1.38123882
5028.00   1.32239854
5030.00   1.36049879
5032.00   1.34267080
5034.00   1.31155515
5036.00   1.36166692
5038.00   1.36320257
5040.00   1.32527173
5042.00   1.27984715
5044.00   1.32387793
5046.00   1.33740783
5048.00   1.31013978
5050.00   1.30722106
5052.00   1.32413232
5054.00   1.36830986
5056.00   1.41148400
5058.00   1.34594226
5060.00   1.38952434
5062.00   1.36396396
5064.00   1.42368567
5066.00   1.42946732
5068.00   1.36209667
5070.00   1.48083222
5072.00   1.48190212
5074.00   1.50170338
5076.00   1.44877803
5078.00   1.46283853
5080.00   1.50003040
5082.00   1.55553353
5084.00   1.60576010
5086.00   1.57592344
5088.00   1.62731910
5090.00   1.71975482
5092.00   1.69126427
5094.00   1.66949451
5096.00   1.64804173
5098.00   1.71624148
5100.00   1.74980581
5102.00   1.80366325
5104.00   1.74278152
5106.00   1.79684043
5108.00   1.81200087
5110.00   1.81547678
5112.00   1.94998789
5114.00   1.88953865
5116.00   1.86284196
5118.00   1.83631730
5120.00   1.79208696
5122.00   1.90342736
5124.00   1.94978595
5126.00   1.92844522
5128.00   1.91830063
5130.00   1.96910608
5132.00   1.94734514
5134.00   1.96998787
5136.00   1.98718739
5138.00   1.89677536
5140.00   1.96916747
5142.00   1.93788230
5144.00   1.98295665
5146.00   1.91792464
5148.00   1.98731518
5150.00   1.95950532
5152.00   2.00851631
5154.00   1.95484281
5156.00   1.95812428
5158.00   1.94516361
5160.00   1.93332040
5162.00   1.92124891
5164.00   1.98115957
5166.00   1.96603215
5168.00   1.99279571
5170.00   1.95520592
5172.00   1.95558214
5174.00   1.93418193
5176.00   1.98005080
5178.00   2.02430415
5180.00   2.09411454
5182.00   2.04337621
5184.00   2.04701972
5186.00   2.05327654
5188.00   2.05531836
5190.00   2.04102015
5192.00   2.05601931
5194.00   2.12554240
5196.00   2.12623239
5198.00   2.08968377
5200.00   2.06771469
5202.00   2.16259718
5204.00   2.17196250
5206.00   2.20987034
5208.00   2.20648313
5210.00   2.26511192
5212.00   2.28516960
5214.00   2.25693011
5216.00   2.25314784
5218.00   2.36579394
5220.00   2.35187268
5222.00   2.32395124
5224.00   2.46730208
5226.00   2.41141129
5228.00   2.39970636
5230.00   2.45911551
5232.00   2.51743078
5234.00   2.50115156
5236.00   2.49559593
5238.00   2.54496741
5240.00   2.55244708
5242.00   2.65624285
5244.00   2.58890390
5246.00   2.59709930
5248.00   2.61850786
5250.00   2.55067825
5252.00   2.66190481
5254.00   2.70809293
5256.00   2.66530991
5258.00   2.73253703
5260.00   2.70777130
5262.00   2.64308023
5264.00   2.79757619
5266.00   2.76407886
5268.00   2.74503517
5270.00   2.65647554
5272.00   2.78131890
5274.00   2.83107209
5276.00   2.79085970
5278.00   2.79744911
5280.00   2.80143476
5282.00   2.89594555
5284.00   2.82869768
5286.00   2.77651095
5288.00   2.84856987
5290.00   2.89322615
5292.00   2.85899115
5294.00   2.86916423
5296.00   2.88685369
5298.00   2.99281049
5300.00   2.93639636
5302.00   2.93467426
5304.00   2.94763279
5306.00   2.96074867
5308.00   2.94185829
5310.00   2.98214936
5312.00   2.94670439
5314.00   3.00379229
5316.00   2.90249372
5318.00   2.92477584
5320.00   2.99235034
5322.00   2.82534838
5324.00   2.94393349
5326.00   2.95578885
5328.00   2.85598660
5330.00   2.93251777
5332.00   2.94158316
5334.00   2.97941685
5336.00   3.14826322
5338.00   2.93986082
5340.00   3.03534985
5342.00   2.98851323
5344.00   2.95044255
5346.00   2.85568333
5348.00   2.98335886
5350.00   3.01234365
5352.00   2.92673206
5354.00   2.93692493
5356.00   2.92536855
5358.00   2.91451335
5360.00   2.94440269
5362.00   2.86864328
5364.00   2.87589788
5366.00   2.80359221
5368.00   2.82124877
5370.00   2.90617442
5372.00   2.65029049
5374.00   2.86325312
5376.00   2.69428873
5378.00   2.79540300
5380.00   2.76447487
5382.00   2.76376271
5384.00   2.89748454
5386.00   2.74768710
5388.00   2.78103352
5390.00   2.79900432
5392.00   2.72053504
5394.00   2.71430683
5396.00   2.72432089
5398.00   2.62867212
5400.00   2.72975373
5402.00   2.75522113
5404.00   2.58987761
5406.00   2.67942047
5408.00   2.70161462
5410.00   2.68983531
5412.00   2.53838658
5414.00   2.60652828
5416.00   2.64082098
5418.00   2.65954137
5420.00   2.70435739
5422.00   2.68791151
5424.00   2.60051036
5426.00   2.56828046
5428.00   2.56530547
5430.00   2.58952856
5432.00   2.66147852
5434.00   2.76195192
5436.00   2.77271676
5438.00   2.70154166
5440.00   2.66517305
5442.00   2.62197614
5444.00   2.59450150
5446.00   2.59201384
5448.00   2.60337353
5450.00   2.61145210
5452.00   2.63106203
5454.00   2.62713718
5456.00   2.58986092
5458.00   2.57922316
5460.00   2.60558152
5462.00   2.64503980
5464.00   2.67722988
5466.00   2.71769404
5468.00   2.72036123
5470.00   2.67936158
5472.00   2.65844226
5474.00   2.65161538
5476.00   2.65319324
5478.00   2.66830826
5480.00   2.69704223
5482.00   2.68457913
5484.00   2.61978674
5486.00   2.59885001
5488.00   2.61897612
5490.00   2.63338137
5492.00   2.61972070
5494.00   2.59298587
5496.00   2.57367396
5498.00   2.54107118
5500.00   2.54019046
5502.00   2.57664108
5504.00   2.59870005
5506.00   2.59076977
5508.00   2.57124662
5510.00   2.56342030
5512.00   2.56299543
5514.00   2.54876685
5516.00   2.52396750
5518.00   2.49828076
5520.00   2.46553946
5522.00   2.43747449
5524.00   2.43255711
5526.00   2.44606066
5528.00   2.45487094
5530.00   2.47881722
5532.00   2.47965312
5534.00   2.45036650
5536.00   2.41994739
5538.00   2.40954566
5540.00   2.40909839
5542.00   2.40677476
5544.00   2.40646863
5546.00   2.40865326
5548.00   2.41458535
5550.00   2.42075777
5552.00   2.42650032
5554.00   2.43187428
5556.00   2.43271112
5558.00   2.42913628
5560.00   2.42593098
5562.00   2.42139673
5564.00   2.41631937
5566.00   2.41211176
5568.00   2.40650940
5570.00   2.39395499
5572.00   2.37205148
5574.00   2.36183476
5576.00   2.36167645
5578.00   2.35716867
5580.00   2.34358644
5582.00   2.33214593
5584.00   2.33624744
5586.00   2.35258126
5588.00   2.36171079
5590.00   2.38155699
5592.00   2.37601757
5594.00   2.33453965
5596.00   2.29485226
5598.00   2.28458905
5600.00   2.29032445
5602.00   2.29078150
5604.00   2.30039048
5606.00   2.29590392
5608.00   2.27202368
5610.00   2.25666928
5612.00   2.26330256
5614.00   2.28160596
5616.00   2.29456401
5618.00   2.31861591
5620.00   2.31785727
5622.00   2.29831314
5624.00   2.27295613
5626.00   2.23716640
5628.00   2.20012450
5630.00   2.18629956
5632.00   2.18832684
5634.00   2.19501877
5636.00   2.23274374
5638.00   2.23359776
5640.00   2.18008709
5642.00   2.11749268
5644.00   2.09313750
5646.00   2.08990622
5648.00   2.07657170
5650.00   2.06757665
5652.00   2.04966593
5654.00   2.02843666
5656.00   1.99563158
5658.00   1.93699229
5660.00   1.85901463
5662.00   1.82670403
5664.00   1.84130287
5666.00   1.82509375
5668.00   1.79365802
5670.00   1.75565004
5672.00   1.71079803
5674.00   1.66081953
5676.00   1.61949992
5678.00   1.57567966
5680.00   1.55125201
5682.00   1.54876029
5684.00   1.54269397
5686.00   1.52827108
5688.00   1.51189041
5690.00   1.49816203
5692.00   1.48398805
5694.00   1.47557366
5696.00   1.47965276
5698.00   1.47035110
5700.00   1.44187343
5702.00   1.41048300
5704.00   1.39115548
5706.00   1.37685740
5708.00   1.37068307
5710.00   1.37056732
5712.00   1.37980545
5714.00   1.41288042
5716.00   1.43360102
5718.00   1.41188645
5720.00   1.36344683
5722.00   1.34448719
5724.00   1.33549178
5726.00   1.33638978
5728.00   1.36234629
5730.00   1.37346435
5732.00   1.34758067
5734.00   1.30554020
5736.00   1.29348993
5738.00   1.30054569
5740.00   1.30351365
5742.00   1.31058967
5744.00   1.31826711
5746.00   1.32745194
5748.00   1.33631110
5750.00   1.34020197
5752.00   1.34005523
5754.00   1.34076786
5756.00   1.32903039
5758.00   1.34015501
5760.00   1.38040471
5762.00   1.42999840
5764.00   1.47160494
5766.00   1.51302493
5768.00   1.55470884
5770.00   1.60009539
5772.00   1.63785529
5774.00   1.66671646
5776.00   1.69468188
5778.00   1.72470963
5780.00   1.75533128
5782.00   1.79695725
5784.00   1.85020781
5786.00   1.90098429
5788.00   1.96065152
5790.00   2.00869226
5792.00   2.03014946
5794.00   2.04131031
5796.00   2.08450532
5798.00   2.15349102
5800.00   2.21176052
5802.00   2.28229880
5804.00   2.33099174
5806.00   2.34485340
5808.00   2.34651256
5810.00   2.36670327
5812.00   2.39044023
5814.00   2.43090558
5816.00   2.50096655
5818.00   2.54927111
5820.00   2.57519054
5822.00   2.59052563
5824.00   2.60234809
5826.00   2.60731053
5828.00   2.60653901
5830.00   2.58679295
5832.00   2.58890295
5834.00   2.60906577
5836.00   2.63787842
5838.00   2.68167424
5840.00   2.73531246
5842.00   2.72607541
5844.00   2.64675093
5846.00   2.60636353
5848.00   2.56124878
5850.00   2.55090451
5852.00   2.60857844
5854.00   2.69484973
5856.00   2.70723653
5858.00   2.66250372
5860.00   2.64624190
5862.00   2.63563132
5864.00   2.62185574
5866.00   2.59864902
5868.00   2.57765341
5870.00   2.57939219
5872.00   2.60615754
5874.00   2.59688354
5876.00   2.55387497
5878.00   2.52884793
5880.00   2.52667975
5882.00   2.52474523
5884.00   2.50096774
5886.00   2.46148133
5888.00   2.45818520
5890.00   2.49221563
5892.00   2.50470781
5894.00   2.50681543
5896.00   2.49940181
5898.00   2.47455263
5900.00   2.43834281
5902.00   2.43741727
5904.00   2.48016524
5906.00   2.48342967
5908.00   2.45138431
5910.00   2.43376780
5912.00   2.45085883
5914.00   2.48144627
5916.00   2.49089384
5918.00   2.49367881
5920.00   2.48456883
5922.00   2.44539189
5924.00   2.43308663
5926.00   2.46643305
5928.00   2.50898981
5930.00   2.51614833
5932.00   2.50896454
5934.00   2.47269177
5936.00   2.39571142
5938.00   2.32776093
5940.00   2.25590158
5942.00   2.19655323
5944.00   2.16672468
5946.00   2.15762258
5948.00   2.18021059
5950.00   2.25754547
5952.00   2.30397105
5954.00   2.33486032
5956.00   2.35540700
5958.00   2.36423349
5960.00   2.36281514
5962.00   2.36552119
5964.00   2.37067699
5966.00   2.36672068
5968.00   2.35593510
5970.00   2.34088182
5972.00   2.31802154
5974.00   2.29314160
5976.00   2.28410053
5978.00   2.28716159
5980.00   2.28942490
5982.00   2.30080938
5984.00   2.30398035
5986.00   2.29714751
5988.00   2.28434300
5990.00   2.26615238
5992.00   2.23659229
5994.00   2.23189783
5996.00   2.25724196
5998.00   2.26122284
6000.00   2.24195433
6002.00   2.21809316
6004.00   2.20118213
6006.00   2.18520975
6008.00   2.17830157
6010.00   2.18656015
6012.00   2.18151307
6014.00   2.15662694
6016.00   2.14363122
6018.00   2.16415286
6020.00   2.20273948
6022.00   2.21385884
6024.00   2.21704936
6026.00   2.20154238
6028.00   2.15073705
6030.00   2.11844039
6032.00   2.12362957
6034.00   2.14449024
6036.00   2.14995313
6038.00   2.15342546
6040.00   2.14894032
6042.00   2.13086081
6044.00   2.12095976
6046.00   2.12339830
6048.00   2.12871003
6050.00   2.12658501
6052.00   2.11968279
6054.00   2.11960530
6056.00   2.12454629
6058.00   2.12857032
6060.00   2.13903141
6062.00   2.14081645
6064.00   2.11527920
6066.00   2.06879663
6068.00   2.05878901
6070.00   2.07496190
6072.00   2.08756948
6074.00   2.11286879
6076.00   2.12610459
6078.00   2.10988951
6080.00   2.07739806
6082.00   2.06537819
6084.00   2.05948305
6086.00   2.06332994
6088.00   2.08496952
6090.00   2.09932160
6092.00   2.09950900
6094.00   2.09333062
6096.00   2.08902860
6098.00   2.08337379
6100.00   2.07643318
6102.00   2.06423759
6104.00   2.05836773
6106.00   2.05993032
6108.00   2.06577516
6110.00   2.07419872
6112.00   2.08737922
6114.00   2.09498405
6116.00   2.09648800
6118.00   2.10386300
6120.00   2.12207580
6122.00   2.13560224
6124.00   2.13165879
6126.00   2.11603498
6128.00   2.10395837
6130.00   2.08153725
6132.00   2.07701135
6134.00   2.09025121
6136.00   2.10506463
6138.00   2.11679864
6140.00   2.12760139
6142.00   2.12871075
6144.00   2.11736608
6146.00   2.11400628
6148.00   2.10797095
6150.00   2.11204433
6152.00   2.13734341
6154.00   2.16682243
6156.00   2.16550136
6158.00   2.14013267
6160.00   2.12286568
6162.00   2.09778380
6164.00   2.08247924
6166.00   2.07923961
6168.00   2.08154511
6170.00   2.08534026
6172.00   2.09540796
6174.00   2.08860445
6176.00   2.06848693
6178.00   2.04739618
6180.00   2.01966667
6182.00   1.99424040
6184.00   1.98028982
6186.00   1.97365403
6188.00   1.95530939
6190.00   1.92674637
6192.00   1.90442455
6194.00   1.88742280
6196.00   1.86808562
6198.00   1.84472656
6200.00   1.81787992
6202.00   1.78165686
6204.00   1.72073054
6206.00   1.69660437
6208.00   1.71151268
6210.00   1.70819604
6212.00   1.66850436
6214.00   1.61790538
6216.00   1.59212947
6218.00   1.58387482
6220.00   1.56037140
6222.00   1.52287447
6224.00   1.49789608
6226.00   1.48957264
6228.00   1.48586953
6230.00   1.47587943
6232.00   1.46442366
6234.00   1.45142043
6236.00   1.42889714
6238.00   1.42186809
6240.00   1.43481541
6242.00   1.44751132
6244.00   1.44449353
6246.00   1.43340802
6248.00   1.43754661
6250.00   1.45794809
6252.00   1.46482205
6254.00   1.46039069
6256.00   1.45776427
6258.00   1.46313417
6260.00   1.47134769
6262.00   1.47265172
6264.00   1.46223128
6266.00   1.47041547
6268.00   1.49631119
6270.00   1.51698852
6272.00   1.52630401
6274.00   1.53324282
6276.00   1.54868066
6278.00   1.56843603
6280.00   1.59164321
6282.00   1.62728953
6284.00   1.64937210
6286.00   1.65414631
6288.00   1.65353012
6290.00   1.65622211
6292.00   1.65602541
6294.00   1.67381096
6296.00   1.71556747
6298.00   1.74093330
6300.00   1.75055635
6302.00   1.75933230
6304.00   1.77946067
6306.00   1.80458426
6308.00   1.80281413
6310.00   1.75540733
6312.00   1.76060259
6314.00   1.81383550
6316.00   1.86231983
6318.00   1.88705826
6320.00   1.90259969
6322.00   1.92101181
6324.00   1.93334866
6326.00   1.95610154
6328.00   1.99312794
6330.00   2.01953673
6332.00   2.03240943
6334.00   2.03554416
6336.00   2.02614021
6338.00   1.99239683
6340.00   2.00119281
6342.00   2.04713225
6344.00   2.08341241
6346.00   2.11437297
6348.00   2.13896751
6350.00   2.14859223
6352.00   2.14375067
6354.00   2.15813303
6356.00   2.18822503
6358.00   2.20999312
6360.00   2.22814870
6362.00   2.24165177
6364.00   2.24645543
6366.00   2.24493623
6368.00   2.25665140
6370.00   2.28740549
6372.00   2.29536557
6374.00   2.28096080
6376.00   2.27167892
6378.00   2.27704501
6380.00   2.28931904
6382.00   2.30170655
6384.00   2.32075262
6386.00   2.33126569
6388.00   2.33404970
6390.00   2.33983898
6392.00   2.35122442
6394.00   2.36383939
6396.00   2.37276673
6398.00   2.38035583
6400.00   2.38475657
6402.00   2.38412786
6404.00   2.38578248
6406.00   2.39018726
6408.00   2.39483881
6410.00   2.39817023
6412.00   2.40117288
6414.00   2.40083385
6416.00   2.39356184
6418.00   2.39392734
6420.00   2.40035415
6422.00   2.41002822
6424.00   2.42494297
6426.00   2.44350266
6428.00   2.44368124
6430.00   2.42874575
6432.00   2.41359997
6434.00   2.38899231
6436.00   2.36910486
6438.00   2.35620618
6440.00   2.34975433
6442.00   2.35848212
6444.00   2.39131689
6446.00   2.40053391
6448.00   2.40228772
6450.00   2.39166927
6452.00   2.35862994
6454.00   2.32197213
6456.00   2.31464553
6458.00   2.33250690
6460.00   2.32196093
6462.00   2.29249954
6464.00   2.26686096
6466.00   2.24210215
6468.00   2.21955633
6470.00   2.20250630
6472.00   2.18961239
6474.00   2.17851663
6476.00   2.16729498
6478.00   2.16459179
6480.00   2.17810392
6482.00   2.18456841
6484.00   2.16976857
6486.00   2.14217114
6488.00   2.11646914
6490.00   2.07112551
6492.00   2.06066012
6494.00   2.08394098
6496.00   2.10404801
6498.00   2.11037636
6500.00   2.11211872
6502.00   2.11545634
6504.00   2.12084222
6506.00   2.11700368
6508.00   2.10355592
6510.00   2.09147954
6512.00   2.08326530
6514.00   2.07405686
6516.00   2.05660605
6518.00   2.02826285
6520.00   2.02289915
6522.00   2.04167795
6524.00   2.04816222
6526.00   2.04029846
6528.00   2.03194141
6530.00   2.03405643
6532.00   2.04233003
6534.00   2.04426122
6536.00   2.05215478
6538.00   2.04003334
6540.00   2.00380301
6542.00   1.96694195
6544.00   1.93705726
6546.00   1.91083729
6548.00   1.91022611
6550.00   1.94346845
6552.00   1.95669305
6554.00   1.95897985
6556.00   1.96648264
6558.00   1.98490441
6560.00   2.00814724
6562.00   2.02746129
6564.00   2.04532027
6566.00   2.06537771
6568.00   2.09083772
6570.00   2.10918093
6572.00   2.11659288
6574.00   2.12090898
6576.00   2.13078308
6578.00   2.14094114
6580.00   2.16167188
6582.00   2.19983697
6584.00   2.22431850
6586.00   2.23260283
6588.00   2.23909521
6590.00   2.25408077
6592.00   2.27271819
6594.00   2.29342771
6596.00   2.32262731
6598.00   2.34137654
6600.00   2.35203362
6602.00   2.35877156
6604.00   2.36087155
6606.00   2.35961080
6608.00   2.36921048
6610.00   2.38501978
6612.00   2.40551400
6614.00   2.43632507
6616.00   2.46324658
6618.00   2.48324680
6620.00   2.49897003
6622.00   2.51104474
6624.00   2.52384257
6626.00   2.51761532
6628.00   2.49058127
6630.00   2.46559596
6632.00   2.43365955
6634.00   2.41144395
6636.00   2.43186307
6638.00   2.49453950
6640.00   2.50810504
6642.00   2.48979235
6644.00   2.47707367
6646.00   2.46573329
6648.00   2.45404506
6650.00   2.44112062
6652.00   2.42669010
6654.00   2.42560148
6656.00   2.44343281
6658.00   2.44584799
6660.00   2.43552470
6662.00   2.42486620
6664.00   2.41776013
6666.00   2.41228104
6668.00   2.41422820
6670.00   2.42501307
6672.00   2.43277597
6674.00   2.44743299
6676.00   2.45123577
6678.00   2.43490458
6680.00   2.41109824
6682.00   2.40393019
6684.00   2.41060853
6686.00   2.40187383
6688.00   2.38194990
6690.00   2.36488962
6692.00   2.35504985
6694.00   2.34250903
6696.00   2.31069779
6698.00   2.25519419
6700.00   2.25860286
6702.00   2.32560444
6704.00   2.35901165
6706.00   2.36200738
6708.00   2.35930824
6710.00   2.36681795
6712.00   2.37736106
6714.00   2.37134361
6716.00   2.34401870
6718.00   2.33254147
6720.00   2.33728051
6722.00   2.33555508
6724.00   2.31567240
6726.00   2.28632212
6728.00   2.26418018
6730.00   2.23803544
6732.00   2.22556114
6734.00   2.22045159
6736.00   2.22568870
6738.00   2.24973726
6740.00   2.27883744
6742.00   2.28251195
6744.00   2.27102518
6746.00   2.25228047
6748.00   2.20810604
6750.00   2.18488598
6752.00   2.19032598
6754.00   2.20380259
6756.00   2.20657063
6758.00   2.20794225
6760.00   2.19914579
6762.00   2.17314315
6764.00   2.16070318
6766.00   2.16005397
6768.00   2.16440678
6770.00   2.17283416
6772.00   2.18631601
6774.00   2.18412018
6776.00   2.17429829
6778.00   2.15380907
6780.00   2.10912561
6782.00   2.07715297
6784.00   2.07834482
6786.00   2.09611797
6788.00   2.09490132
6790.00   2.08662057
6792.00   2.07516432
6794.00   2.05202651
6796.00   2.03771925
6798.00   2.04041052
6800.00   2.04813194
6802.00   2.04162526
6804.00   2.02390814
6806.00   2.01700521
6808.00   2.02468133
6810.00   2.01544905
6812.00   1.97584498
6814.00   1.93804097
6816.00   1.94200325
6818.00   1.97951233
6820.00   1.97261202
6822.00   1.92289257
6824.00   1.90502644
6826.00   1.92503107
6828.00   1.94007123
6830.00   1.91924572
6832.00   1.87789428
6834.00   1.85742533
6836.00   1.84584546
6838.00   1.83557391
6840.00   1.82777739
6842.00   1.82421994
6844.00   1.82878315
6846.00   1.83699679
6848.00   1.83139122
6850.00   1.81083584
6852.00   1.80263448
6854.00   1.79906023
6856.00   1.79892004
6858.00   1.80903935
6860.00   1.81734204
6862.00   1.79697609
6864.00   1.74724889
6866.00   1.72488368
6868.00   1.70081818
6870.00   1.70887101
6872.00   1.76651442
6874.00   1.83148813
6876.00   1.86130929
6878.00   1.87604201
6880.00   1.86587298
6882.00   1.80965757
6884.00   1.78396666
6886.00   1.78491795
6888.00   1.79065359
6890.00   1.78580058
6892.00   1.77837348
6894.00   1.80056155
6896.00   1.87396073
6898.00   1.89059901
6900.00   1.86136556
6902.00   1.82878673
6904.00   1.80462193
6906.00   1.78164423
6908.00   1.76701236
6910.00   1.76285207
6912.00   1.75146914
6914.00   1.73239052
6916.00   1.72195590
6918.00   1.72651660
6920.00   1.73560953
6922.00   1.73323286
6924.00   1.72187853
6926.00   1.72210598
6928.00   1.73362780
6930.00   1.73794472
6932.00   1.73415375
6934.00   1.72748101
6936.00   1.71951985
6938.00   1.70710802
6940.00   1.71447909
6942.00   1.74311054
6944.00   1.76306951
6946.00   1.77642655
6948.00   1.79110968
6950.00   1.81232381
6952.00   1.83717620
6954.00   1.85547888
6956.00   1.87039304
6958.00   1.88324785
6960.00   1.89299881
6962.00   1.90150869
6964.00   1.90716648
6966.00   1.91251945
6968.00   1.92829108
6970.00   1.95568526
6972.00   1.97488618
6974.00   1.99144042
6976.00   2.00654864
6978.00   2.02238750
6980.00   2.03499937
6982.00   2.03625178
6984.00   2.02393007
6986.00   2.02795553
6988.00   2.03812981
6990.00   2.05674100
6992.00   2.09184098
6994.00   2.12536502
6996.00   2.13861465
6998.00   2.13922310
7000.00   2.13764310
7002.00   2.12255001
7004.00   2.11886644
7006.00   2.12280393
7008.00   2.13223600
7010.00   2.15172815
7012.00   2.17797875
7014.00   2.17567563
7016.00   2.13441348
7018.00   2.13006496
7020.00   2.15690923
7022.00   2.17648649
7024.00   2.17683148
7026.00   2.16789937
7028.00   2.15657449
7030.00   2.13501501
7032.00   2.12368941
7034.00   2.12105393
7036.00   2.11379695
7038.00   2.09879446
7040.00   2.08170938
7042.00   2.06927371
7044.00   2.05986214
7046.00   2.04694748
7048.00   2.02438521
7050.00   2.01707864
7052.00   2.03309917
7054.00   2.04888511
7056.00   2.04113221
7058.00   2.01804233
7060.00   2.01264381
7062.00   2.02252364
7064.00   2.02022743
7066.00   2.00893879
7068.00   1.99405205
7070.00   1.97389412
7072.00   1.95030475
7074.00   1.94903874
7076.00   1.97502387
7078.00   1.98136568
7080.00   1.97212851
7082.00   1.97073066
7084.00   1.99048829
7086.00   2.01588607
7088.00   2.01297498
7090.00   1.98461449
7092.00   1.97120500
7094.00   1.96010232
7096.00   1.95235944
7098.00   1.94713569
7100.00   1.94603455
7102.00   1.95372331
7104.00   1.97407806
7106.00   1.97234619
7108.00   1.95295429
7110.00   1.93615448
7112.00   1.91654360
7114.00   1.90111709
7116.00   1.89942944
7118.00   1.90828574
7120.00   1.90869272
7122.00   1.90668356
7124.00   1.90335262
7126.00   1.90097189
7128.00   1.89330006
7130.00   1.87450051
7132.00   1.84875727
7134.00   1.83378899
7136.00   1.82472992
7138.00   1.81671703
7140.00   1.80892062
7142.00   1.80727482
7144.00   1.81713545
7146.00   1.83132505
7148.00   1.83221400
7150.00   1.81997967
7152.00   1.82189310
7154.00   1.83855474
7156.00   1.84409368
7158.00   1.83012235
7160.00   1.81381214
7162.00   1.81813931
7164.00   1.83971536
7166.00   1.83887899
7168.00   1.81887078
7170.00   1.80866599
7172.00   1.80121529
7174.00   1.80445659
7176.00   1.83332038
7178.00   1.88422644
7180.00   1.89598477
7182.00   1.87585485
7184.00   1.86694205
7186.00   1.86058068
7188.00   1.85560977
7190.00   1.84923613
7192.00   1.84419227
7194.00   1.85867417
7196.00   1.90606594
7198.00   1.91931093
7200.00   1.90274346
7202.00   1.89690399
7204.00   1.91415179
7206.00   1.94108498
7208.00   1.96262228
7210.00   1.99027514
7212.00   1.99974024
7214.00   1.99276888
7216.00   1.98598731
7218.00   1.98127234
7220.00   1.97399247
7222.00   1.95896006
7224.00   1.93486714
7226.00   1.92526114
7228.00   1.92255521
7230.00   1.92678165
7232.00   1.93994796
7234.00   1.95742571
7236.00   1.97691309
7238.00   2.00012207
7240.00   2.01461864
7242.00   2.01988029
7244.00   2.03124356
7246.00   2.05626631
7248.00   2.06711388
7250.00   2.04455757
7252.00   2.00335145
7254.00   1.98690534
7256.00   1.98579955
7258.00   1.97885191
7260.00   1.96567011
7262.00   1.96439123
7264.00   1.98547292
7266.00   2.01440287
7268.00   2.02397132
7270.00   2.02786517
7272.00   2.01246428
7274.00   1.95648277
7276.00   1.93464971
7278.00   1.96331680
7280.00   2.00355124
7282.00   2.01490402
7284.00   2.01400495
7286.00   2.00648046
7288.00   1.98246074
7290.00   1.96686447
7292.00   1.96038234
7294.00   1.95317531
7296.00   1.93437958
7298.00   1.90789235
7300.00   1.91476882
7302.00   1.96283853
7304.00   1.98113394
7306.00   1.98249483
7308.00   1.97542763
7310.00   1.96077633
7312.00   1.93885672
7314.00   1.91948295
7316.00   1.88819098
7318.00   1.88239753
7320.00   1.90204990
7322.00   1.91660142
7324.00   1.91648924
7326.00   1.91408432
7328.00   1.92784584
7330.00   1.96375763
7332.00   1.96109939
7334.00   1.91760230
7336.00   1.89539552
7338.00   1.90244615
7340.00   1.91599417
7342.00   1.91382170
7344.00   1.90143096
7346.00   1.91084158
7348.00   1.94716954
7350.00   1.96211874
7352.00   1.95918965
7354.00   1.94733274
7356.00   1.92779088
7358.00   1.89933395
7360.00   1.88629615
7362.00   1.88139415
7364.00   1.88112569
7366.00   1.89104521
7368.00   1.89889681
7370.00   1.89969277
7372.00   1.89680505
7374.00   1.89197803
7376.00   1.88129807
7378.00   1.87627912
7380.00   1.87727940
7382.00   1.87374926
7384.00   1.86080956
7386.00   1.84577274
7388.00   1.84130156
7390.00   1.84636331
7392.00   1.84195447
7394.00   1.82105589
7396.00   1.82201827
7398.00   1.85641491
7400.00   1.89516723
7402.00   1.90751767
7404.00   1.90510249
7406.00   1.90388978
7408.00   1.89205086
7410.00   1.89025843
7412.00   1.90435255
7414.00   1.91254508
7416.00   1.89681768
7418.00   1.86598289
7420.00   1.85387218
7422.00   1.85305166
7424.00   1.84957719
7426.00   1.84370100
7428.00   1.84361160
7430.00   1.85575724
7432.00   1.87376213
7434.00   1.87832785
7436.00   1.87125731
7438.00   1.87170851
7440.00   1.87769532
7442.00   1.87873101
7444.00   1.87126970
7446.00   1.86070633
7448.00   1.85422909
7450.00   1.84722269
7452.00   1.84828901
7454.00   1.85975051
7456.00   1.86666250
7458.00   1.87302411
7460.00   1.87261212
7462.00   1.85241747
7464.00   1.81216776
7466.00   1.80670822
7468.00   1.82889569
7470.00   1.84457457
7472.00   1.86393201
7474.00   1.87637246
7476.00   1.87063110
7478.00   1.85257399
7480.00   1.84800327
7482.00   1.85682940
7484.00   1.84981501
7486.00   1.82582247
7488.00   1.80712152
7490.00   1.80261028
7492.00   1.80506396
7494.00   1.80549121
7496.00   1.81123745
7498.00   1.80750680
7500.00   1.79349577
7502.00   1.78401923
7504.00   1.78109515
7506.00   1.78196549
7508.00   1.78695083
7510.00   1.80182517
7512.00   1.79608595
7514.00   1.76987612
7516.00   1.75148916
7518.00   1.73501360
7520.00   1.72818124
7522.00   1.74558234
7524.00   1.78492713
7526.00   1.80344474
7528.00   1.82338107
7530.00   1.81908476
7532.00   1.78469908
7534.00   1.74555659
7536.00   1.71380472
7538.00   1.68311024
7540.00   1.66871738
7542.00   1.67227614
7544.00   1.67069328
7546.00   1.67300260
7548.00   1.67101991
7550.00   1.66041434
7552.00   1.64540040
7554.00   1.63454807
7556.00   1.62765491
7558.00   1.61330950
7560.00   1.58588111
7562.00   1.57116973
7564.00   1.57686746
7566.00   1.58980119
7568.00   1.59309459
7570.00   1.59326982
7572.00   1.59230888
7574.00   1.58595479
7576.00   1.58515906
7578.00   1.59030938
7580.00   1.59834242
7582.00   1.60717797
7584.00   1.61776459
7586.00   1.63016450
7588.00   1.65600550
7590.00   1.65832913
7592.00   1.63102221
7594.00   1.60602379
7596.00   1.59880280
7598.00   1.60112798
7600.00   1.62265253
7602.00   1.70316815
7604.00   1.69916177
7606.00   1.59645796
7608.00   1.53461945
7610.00   1.57410359
7612.00   1.65508139
7614.00   1.67455757
7616.00   1.66468883
7618.00   1.65165544
7620.00   1.61780465
7622.00   1.59099984
7624.00   1.57634747
7626.00   1.56469190
7628.00   1.54611897
7630.00   1.52123451
7632.00   1.50977743
7634.00   1.50804079
7636.00   1.50829291
7638.00   1.51552665
7640.00   1.52044141
7642.00   1.51249588
7644.00   1.49559963
7646.00   1.48217225
7648.00   1.45953441
7650.00   1.45489347
7652.00   1.46749234
7654.00   1.48604858
7656.00   1.50539589
7658.00   1.52838969
7660.00   1.55411911
7662.00   1.59487414
7664.00   1.61071050
7666.00   1.61158895
7668.00   1.59993804
7670.00   1.56563222
7672.00   1.52387893
7674.00   1.52319372
7676.00   1.56087506
7678.00   1.57364714
7680.00   1.58298540
7682.00   1.58242178
7684.00   1.56354511
7686.00   1.54251742
7688.00   1.54529297
7690.00   1.56681788
7692.00   1.57272971
7694.00   1.56714034
7696.00   1.57088017
7698.00   1.58017969
7700.00   1.59822464
7702.00   1.63578892
7704.00   1.69227672
7706.00   1.70302629
7708.00   1.67119765
7710.00   1.65618360
7712.00   1.64222300
7714.00   1.63851261
7716.00   1.65862024
7718.00   1.69240367
7720.00   1.68974674
7722.00   1.64990139
7724.00   1.63526332
7726.00   1.63178515
7728.00   1.63036430
7730.00   1.62684906
7732.00   1.62613261
7734.00   1.63799787
7736.00   1.66576886
7738.00   1.68014276
7740.00   1.69097114
7742.00   1.69562972
7744.00   1.69077098
7746.00   1.68301272
7748.00   1.68275428
7750.00   1.68851149
7752.00   1.68203342
7754.00   1.66004062
7756.00   1.65048122
7758.00   1.65456033
7760.00   1.66174686
7762.00   1.66424751
7764.00   1.66539705
7766.00   1.67205834
7768.00   1.68168902
7770.00   1.69501698
7772.00   1.71625185
7774.00   1.73437762
7776.00   1.74419284
7778.00   1.74879611
7780.00   1.74892247
7782.00   1.74206591
7784.00   1.73577666
7786.00   1.72705865
7788.00   1.71820498
7790.00   1.70246553
7792.00   1.69078481
7794.00   1.71452963
7796.00   1.77580559
7798.00   1.81374991
7800.00   1.85923159
7802.00   1.87667501
7804.00   1.85554039
7806.00   1.81870627
7808.00   1.79067385
7810.00   1.75747263
7812.00   1.74279702
7814.00   1.74491346
7816.00   1.74568379
7818.00   1.74423039
7820.00   1.74809432
7822.00   1.76568186
7824.00   1.79438531
7826.00   1.80291688
7828.00   1.79734540
7830.00   1.79238558
7832.00   1.77902818
7834.00   1.77198815
7836.00   1.78277075
7838.00   1.80234110
7840.00   1.80179906
7842.00   1.77844226
7844.00   1.77671778
7846.00   1.78967905
7848.00   1.80066729
7850.00   1.80662930
7852.00   1.81028593
7854.00   1.81153953
7856.00   1.81348050
7858.00   1.80260742
7860.00   1.77262270
7862.00   1.75419188
7864.00   1.74742770
7866.00   1.74971795
7868.00   1.76564467
7870.00   1.80025470
7872.00   1.80344164
7874.00   1.77543533
7876.00   1.76567709
7878.00   1.77394652
7880.00   1.78443754
7882.00   1.78851724
7884.00   1.79069495
7886.00   1.78459895
7888.00   1.77170479
7890.00   1.75428474
7892.00   1.72298610
7894.00   1.70050848
7896.00   1.69957376
7898.00   1.71060026
7900.00   1.71382451
7902.00   1.71859074
7904.00   1.71749735
7906.00   1.71026599
7908.00   1.70373905
7910.00   1.70188081
7912.00   1.69888723
7914.00   1.68308699
7916.00   1.65209508
7918.00   1.63787985
7920.00   1.63796186
7922.00   1.63046944
7924.00   1.60373008
7926.00   1.58400309
7928.00   1.60713971
7930.00   1.66857028
7932.00   1.68368351
7934.00   1.66067529
7936.00   1.65960169
7938.00   1.68022645
7940.00   1.70174265
7942.00   1.71384537
7944.00   1.72209322
7946.00   1.71197414
7948.00   1.68433177
7950.00   1.65267503
7952.00   1.59596419
7954.00   1.56047606
7956.00   1.57487464
7958.00   1.61496282
7960.00   1.62081146
7962.00   1.61203504
7964.00   1.59684956
7966.00   1.55497122
7968.00   1.53618610
7970.00   1.55868590
7972.00   1.59625030
7974.00   1.61010611
7976.00   1.61556315
7978.00   1.61297691
7980.00   1.59612966
7982.00   1.58313525
7984.00   1.57013607
7986.00   1.56290400
7988.00   1.57340586
7990.00   1.60102904
7992.00   1.60718668
7994.00   1.60246348
7996.00   1.59318078
7998.00   1.57145667
8000.00   1.55363774
8002.00   1.55240142
8004.00   1.56139326
8006.00   1.56870520
8008.00   1.58431590
8010.00   1.58899772
8012.00   1.58495271
8014.00   1.57862401
8016.00   1.57015419
8018.00   1.56057036
8020.00   1.56026649
8022.00   1.57165885
8024.00   1.57223105
8026.00   1.56716311
8028.00   1.56078529
8030.00   1.55203283
8032.00   1.54311728
8034.00   1.54048824
8036.00   1.54487336
8038.00   1.53988302
8040.00   1.52923429
8042.00   1.51711428
8044.00   1.49637306
8046.00   1.48155916
8048.00   1.49249482
8050.00   1.52466905
8052.00   1.53897274
8054.00   1.55528057
8056.00   1.55150306
8058.00   1.52261245
8060.00   1.48969054
8062.00   1.46226931
8064.00   1.43532264
8066.00   1.43144727
8068.00   1.45247483
8070.00   1.46651280
8072.00   1.48866880
8074.00   1.50017929
8076.00   1.48992264
8078.00   1.46845675
8080.00   1.45987403
8082.00   1.45732689
8084.00   1.45303357
8086.00   1.44725418
8088.00   1.44585001
8090.00   1.45159650
8092.00   1.45985138
8094.00   1.46390796
8096.00   1.46816933
8098.00   1.46389592
8100.00   1.45002353
8102.00   1.43797243
8104.00   1.42697918
8106.00   1.41666973
8108.00   1.40676630
8110.00   1.39619529
8112.00   1.39683950
8114.00   1.40904093
8116.00   1.41933274
8118.00   1.43428802
8120.00   1.44375944
8122.00   1.43898892
8124.00   1.42483485
8126.00   1.41814303
8128.00   1.41035700
8130.00   1.41029537
8132.00   1.41921639
8134.00   1.42775273
8136.00   1.43342519
8138.00   1.43780947
8140.00   1.43941784
8142.00   1.43802226
8144.00   1.43660152
8146.00   1.43510795
8148.00   1.43112493
8150.00   1.42784882
8152.00   1.41931403
8154.00   1.39139938
8156.00   1.33848393
8158.00   1.32206261
8160.00   1.34048128
8162.00   1.34023237
8164.00   1.31593990
8166.00   1.29016519
8168.00   1.28084576
8170.00   1.27999711
8172.00   1.28494108
8174.00   1.29945087
8176.00   1.31437588
8178.00   1.34184647
8180.00   1.35628390
8182.00   1.33758485
8184.00   1.29760289
8186.00   1.27496076
8188.00   1.25238562
8190.00   1.24211454
8192.00   1.25421906
8194.00   1.25310218
8196.00   1.22304809
8198.00   1.17966330
8200.00   1.14979589
8202.00   1.11967516
8204.00   1.10350168
8206.00   1.10116982
8208.00   1.10068274
8210.00   1.10141671
8212.00   1.10435319
8214.00   1.11001968
8216.00   1.12377405
8218.00   1.11402333
8220.00   1.08686662
8222.00   1.05417359
8224.00   1.00842917
8226.00   0.96358079
8228.00   0.93723834
8230.00   0.92420155
8232.00   0.88716972
8234.00   0.80961645
8236.00   0.78391385
8238.00   0.81193304
8240.00   0.84438449
8242.00   0.85806400
8244.00   0.86580217
8246.00   0.86374617
8248.00   0.84614003
8250.00   0.83674842
8252.00   0.83051115
8254.00   0.82365489
8256.00   0.81170475
8258.00   0.80060160
8260.00   0.80710131
8262.00   0.83590198
8264.00   0.84254187
8266.00   0.83548951
8268.00   0.82927227
8270.00   0.82278413
8272.00   0.81804550
8274.00   0.82208407
8276.00   0.83456552
8278.00   0.84002411
8280.00   0.84204191
8282.00   0.84471613
8284.00   0.85070801
8286.00   0.85300881
8288.00   0.84386671
8290.00   0.82568091
8292.00   0.81657350
8294.00   0.81140131
8296.00   0.80715805
8298.00   0.80470234
8300.00   0.80341601
8302.00   0.80382133
8304.00   0.80535239
8306.00   0.80236048
8308.00   0.78912383
8310.00   0.79157311
8312.00   0.80922347
8314.00   0.82376915
8316.00   0.82857108
8318.00   0.83075142
8320.00   0.84136719
8322.00   0.86412406
8324.00   0.86612618
8326.00   0.84836644
8328.00   0.83706987
8330.00   0.83225876
8332.00   0.83310556
8334.00   0.84629011
8336.00   0.87707448
8338.00   0.87457252
8340.00   0.83411926
8342.00   0.81991160
8344.00   0.83514369
8346.00   0.85467374
8348.00   0.86232114
8350.00   0.86633271
8352.00   0.85837919
8354.00   0.82857704
8356.00   0.81777978
8358.00   0.82092178
8360.00   0.82897395
8362.00   0.84135926
8364.00   0.85735184
8366.00   0.85913157
8368.00   0.84263027
8370.00   0.84307414
8372.00   0.85558683
8374.00   0.86599272
8376.00   0.87209374
8378.00   0.87524247
8380.00   0.87159687
8382.00   0.85699779
8384.00   0.85557646
8386.00   0.86428481
8388.00   0.87043470
8390.00   0.86835110
8392.00   0.87000042
8394.00   0.89254904
8396.00   0.93471438
8398.00   0.95620519
8400.00   0.96980703
8402.00   0.97606462
8404.00   0.96898484
8406.00   0.96218759
8408.00   0.96839470
8410.00   0.98221797
8412.00   0.98666781
8414.00   0.98105174
8416.00   0.98625249
8418.00   1.00062740
8420.00   1.01668310
8422.00   1.03319168
8424.00   1.05016387
8426.00   1.05749965
8428.00   1.05729592
8430.00   1.05479956
8432.00   1.03887808
8434.00   1.03595150
8436.00   1.05585325
8438.00   1.08620977
8440.00   1.10848570
8442.00   1.13223445
8444.00   1.14716268
8446.00   1.14760101
8448.00   1.15947223
8450.00   1.18995881
8452.00   1.22251415
8454.00   1.23612261
8456.00   1.23344100
8458.00   1.26005507
8460.00   1.32356644
8462.00   1.35482299
8464.00   1.35656428
8466.00   1.34522235
8468.00   1.32487512
8470.00   1.29199469
8472.00   1.28794658
8474.00   1.30948603
8476.00   1.32128537
8478.00   1.33038926
8480.00   1.33934009
8482.00   1.34786654
8484.00   1.35655761
8486.00   1.37040913
8488.00   1.39365447
8490.00   1.40552187
8492.00   1.40374959
8494.00   1.41164124
8496.00   1.43738377
8498.00   1.47006917
8500.00   1.49428606
8502.00   1.51929450
8504.00   1.53043318
8506.00   1.52264714
8508.00   1.52422690
8510.00   1.53616643
8512.00   1.55353773
8514.00   1.57507229
8516.00   1.60318065
8518.00   1.62364316
8520.00   1.64907157
8522.00   1.65460968
8524.00   1.62682486
8526.00   1.60616839
8528.00   1.62754536
8530.00   1.67487705
8532.00   1.68730795
8534.00   1.66302133
8536.00   1.67613316
8538.00   1.72804773
8540.00   1.76997733
8542.00   1.77632940
8544.00   1.76765358
8546.00   1.78703344
8548.00   1.83935952
8550.00   1.85198617
8552.00   1.83347297
8554.00   1.82017851
8556.00   1.81609881
8558.00   1.81798708
8560.00   1.83286166
8562.00   1.86552107
8564.00   1.87989426
8566.00   1.88385296
8568.00   1.88731849
8570.00   1.88619065
8572.00   1.88778770
8574.00   1.90436971
8576.00   1.93436348
8578.00   1.94608951
8580.00   1.94576013
8582.00   1.94630945
8584.00   1.94367218
8586.00   1.94259286
8588.00   1.94946718
8590.00   1.96129775
8592.00   1.95661378
8594.00   1.92345452
8596.00   1.92534077
8598.00   1.95894086
8600.00   1.99268341
8602.00   2.01797700
8604.00   2.03937292
8606.00   2.04631829
8608.00   2.03607345
8610.00   2.03252363
8612.00   2.02462602
8614.00   2.02337074
8616.00   2.03490806
8618.00   2.04932117
8620.00   2.05019283
8622.00   2.04429603
8624.00   2.03064275
8626.00   1.99844992
8628.00   1.98079848
8630.00   1.98162544
8632.00   1.98756170
8634.00   1.98587608
8636.00   1.98020756
8638.00   1.98897123
8640.00   2.01993895
8642.00   2.02969170
8644.00   2.01242805
8646.00   1.99975789
8648.00   2.01305532
8650.00   2.04116273
8652.00   2.06176090
8654.00   2.09544635
8656.00   2.09993601
8658.00   2.07338262
8660.00   2.04850435
8662.00   2.03767109
8664.00   2.03119731
8666.00   2.01913667
8668.00   2.00268412
8670.00   1.99107921
8672.00   1.97869587
8674.00   1.97360671
8676.00   1.98007131
8678.00   1.99091375
8680.00   1.99403811
8682.00   1.99060905
8684.00   1.99985433
8686.00   2.02376795
8688.00   2.03826809
8690.00   2.04292941
8692.00   2.04292011
8694.00   2.04040551
8696.00   2.03335428
8698.00   2.03217602
8700.00   2.04764986
8702.00   2.03489232
8704.00   1.98699903
8706.00   1.94014585
8708.00   1.91316891
8710.00   1.89609790
8712.00   1.89827752
8714.00   1.92635250
8716.00   1.94753504
8718.00   1.97859979
8720.00   1.99743974
8722.00   1.99467134
8724.00   1.97862172
8726.00   1.96067190
8728.00   1.91945004
8730.00   1.91986191
8732.00   1.96118093
8734.00   1.98986316
8736.00   1.99855292
8738.00   1.99873722
8740.00   1.99611950
8742.00   1.98424697
8744.00   1.98539078
8746.00   2.00061798
8748.00   2.00552893
8750.00   1.99524283
8752.00   1.98535001
8754.00   1.99287248
8756.00   2.01370049
8758.00   2.00710797
8760.00   1.97804224
8762.00   1.95369422
8764.00   1.92420232
8766.00   1.90131986
8768.00   1.89529562
8770.00   1.90007114
8772.00   1.89511490
8774.00   1.87806463
8776.00   1.88077235
8778.00   1.90580654
8780.00   1.92375302
8782.00   1.92111909
8784.00   1.91155910
8786.00   1.92094994
8788.00   1.95188224
8790.00   1.95617342
8792.00   1.94440854
8794.00   1.92801273
8796.00   1.90129101
8798.00   1.87511563
8800.00   1.87214851
8802.00   1.88958263
8804.00   1.89040542
8806.00   1.88608873
8808.00   1.87742043
8810.00   1.85792100
#8812.00   1.84176254
#8814.00   1.84213471
#8816.00   1.85272002
#8818.00   1.87578833
#8820.00   1.92087173
#8822.00   1.95516908
#8824.00   1.98753047
#8826.00   2.01187563
#8828.00   2.00963473
#8830.00   1.99456131
#8832.00   2.06388211
#8834.00   2.31534290
#8836.00   2.30782032
#8838.00   2.04707551
#8840.00   1.84058499
#8842.00   1.78371882
8844.00   1.78991187
8846.00   1.78068447
8848.00   1.80154955
8850.00   1.78959239
8852.00   1.75085115
8854.00   1.72300255
8856.00   1.70842850
8858.00   1.70231950
8860.00   1.70631826
8862.00   1.72405648
8864.00   1.72980583
8866.00   1.72707105
8868.00   1.73014593
8870.00   1.73929012
8872.00   1.75030828
8874.00   1.76109147
8876.00   1.77305782
8878.00   1.78014219
8880.00   1.79084074
8882.00   1.78445959
8884.00   1.76036918
8886.00   1.73066688
8888.00   1.69547176
8890.00   1.65635276
8892.00   1.64802897
8894.00   1.67453277
8896.00   1.68086672
8898.00   1.68441451
8900.00   1.67960465
8902.00   1.66189671
8904.00   1.63721001
8906.00   1.61881685
8908.00   1.59976268
8910.00   1.58777487
8912.00   1.58675563
8914.00   1.57856154
8916.00   1.55963147
8918.00   1.53745747
8920.00   1.51812840
8922.00   1.49470401
8924.00   1.49475539
8926.00   1.51914597
8928.00   1.53819406
8930.00   1.55397427
8932.00   1.57003367
8934.00   1.59143710
8936.00   1.61798489
8938.00   1.61179471
8940.00   1.56971204
8942.00   1.54302752
8944.00   1.51948941
8946.00   1.50264490
8948.00   1.49435472
8950.00   1.49376166
8952.00   1.50480390
8954.00   1.55569196
8956.00   1.54668415
8958.00   1.48514616
8960.00   1.42880130
8962.00   1.38560450
8964.00   1.35164917
8966.00   1.34545946
8968.00   1.37036288
8970.00   1.38153696
8972.00   1.39965093
8974.00   1.40452170
8976.00   1.38815176
8978.00   1.36752057
8980.00   1.36751461
8982.00   1.38817847
8984.00   1.35841703
8986.00   1.25960541
8988.00   1.21952415
8990.00   1.24076736
8992.00   1.27853143
8994.00   1.30757904
8996.00   1.34156311
8998.00   1.35204375
9000.00   1.33767831
9002.00   1.33401406
9004.00   1.33705974
9006.00   1.33711135
9008.00   1.33115423
9010.00   1.32071590
9012.00   1.30177081
9014.00   1.26460719
9016.00   1.24698472
9018.00   1.23805034
9020.00   1.23729610
9022.00   1.25370014
9024.00   1.27267611
9026.00   1.25652170
9028.00   1.20591962
9030.00   1.18281484
9032.00   1.16475904
9034.00   1.16161704
9036.00   1.18623793
9038.00   1.21185732
9040.00   1.20166695
9042.00   1.16540241
9044.00   1.14661109
9046.00   1.12601209
9048.00   1.11970150
9050.00   1.13373649
9052.00   1.14871716
9054.00   1.14844227
9056.00   1.14016223
9058.00   1.14508653
9060.00   1.16263223
9062.00   1.17117774
9064.00   1.17950118
9066.00   1.17768121
9068.00   1.15697324
9070.00   1.12493849
9072.00   1.10668778
9074.00   1.07989609
9076.00   1.08984458
9078.00   1.14064038
9080.00   1.18376982
9082.00   1.21415055
9084.00   1.23456204
9086.00   1.23098981
9088.00   1.19850004
9090.00   1.18492818
9092.00   1.16869521
9094.00   1.16977680
9096.00   1.19258308
9098.00   1.22600949
9100.00   1.26406050
9102.00   1.31867480
9104.00   1.31852162
9106.00   1.25309455
9108.00   1.22718716
9110.00   1.23767400
9112.00   1.25468528
9114.00   1.26155269
9116.00   1.26664388
9118.00   1.27138472
9120.00   1.27186298
9122.00   1.27924716
9124.00   1.29656339
9126.00   1.30917215
9128.00   1.30886543
9130.00   1.30236471
9132.00   1.30475497
9134.00   1.31026447
9136.00   1.31976104
9138.00   1.34135473
9140.00   1.35169852
9142.00   1.33799660
9144.00   1.31982291
9146.00   1.33336377
9148.00   1.37807584
9150.00   1.38828146
9152.00   1.37415123
9154.00   1.36609030
9156.00   1.36095369
9158.00   1.36147738
9160.00   1.37408519
9162.00   1.39509797
9164.00   1.43151259
9166.00   1.51814616
9168.00   1.53900588
9170.00   1.48886621
9172.00   1.42433631
9174.00   1.37037468
9176.00   1.31327260
9178.00   1.31902480
9180.00   1.40902376
9182.00   1.43842614
9184.00   1.41596556
9186.00   1.41063154
9188.00   1.46269047
9190.00   1.53571379
9192.00   1.53951573
9194.00   1.47512269
9196.00   1.45861411
9198.00   1.46114874
9200.00   1.46641421
9202.00   1.47429466
9204.00   1.48369610
9206.00   1.48696244
9208.00   1.48537958
9210.00   1.48775101
9212.00   1.48685551
9214.00   1.49602640
9216.00   1.52544010
9218.00   1.55147636
9220.00   1.54404080
9222.00   1.50935650
9224.00   1.51229370
9226.00   1.55079913
9228.00   1.56439722
9230.00   1.55968857
9232.00   1.54538119
9234.00   1.51910782
9236.00   1.48203301
9238.00   1.47778594
9240.00   1.52334821
9242.00   1.51287973
9244.00   1.44262302
9246.00   1.39216733
9248.00   1.39390218
9250.00   1.42130160
9252.00   1.43893754
9254.00   1.46075892
9256.00   1.48387063
9258.00   1.51719415
9260.00   1.53796446
9262.00   1.54345500
9264.00   1.53721464
9266.00   1.51871443
9268.00   1.48462903
9270.00   1.45322096
9272.00   1.40310776
9274.00   1.38121903
9276.00   1.40273416
9278.00   1.42667830
9280.00   1.40785646
9282.00   1.35880160
9284.00   1.35774434
9286.00   1.39245141
9288.00   1.42000830
9290.00   1.46088457
9292.00   1.48388982
9294.00   1.45675242
9296.00   1.39764059
9298.00   1.39663959
9300.00   1.44509625
9302.00   1.46745181
9304.00   1.47942042
9306.00   1.49092197
9308.00   1.51166320
9310.00   1.53018832
9312.00   1.51142335
9314.00   1.44862866
9316.00   1.41716218
9318.00   1.38834333
9320.00   1.37920082
9322.00   1.40434992
9324.00   1.43758976
9326.00   1.43372786
9328.00   1.39932859
9330.00   1.39849532
9332.00   1.43224049
9334.00   1.43654668
9336.00   1.41086161
9338.00   1.36929655
9340.00   1.31000388
9342.00   1.22353518
9344.00   1.22319150
9346.00   1.31428337
9348.00   1.36066473
9350.00   1.38887584
9352.00   1.39608049
9354.00   1.36443484
9356.00   1.30564654
9358.00   1.30754864
9360.00   1.35929489
9362.00   1.39424968
9364.00   1.44284856
9366.00   1.47086716
9368.00   1.46289134
9370.00   1.43414104
9372.00   1.41067338
9374.00   1.38249290
9376.00   1.35024273
9378.00   1.30281758
9380.00   1.27144992
9382.00   1.26346946
9384.00   1.26562655
9386.00   1.26061893
9388.00   1.24757171
9390.00   1.27181041
9392.00   1.33439898
9394.00   1.38856423
9396.00   1.45981824
9398.00   1.50227833
9400.00   1.45712566
9402.00   1.34165394
9404.00   1.28098643
9406.00   1.22246397
9408.00   1.20084262
9410.00   1.21850395
9412.00   1.25276315
9414.00   1.30242777
9416.00   1.36587214
9418.00   1.37695646
9420.00   1.34098256
9422.00   1.31841099
9424.00   1.29109240
9426.00   1.26366115
9428.00   1.22807157
9430.00   1.19703400
9432.00   1.21606719
9434.00   1.31535888
9436.00   1.30426109
9438.00   1.17964339
9440.00   1.11737716
9442.00   1.15062642
9444.00   1.21476460
9446.00   1.24369800
9448.00   1.26261711
9450.00   1.28543174
9452.00   1.31474292
9454.00   1.32912326
9456.00   1.33215010
9458.00   1.32120705
9460.00   1.28752828
9462.00   1.23182023
9464.00   1.20325685
9466.00   1.16666007
9468.00   1.18184984
9470.00   1.27516592
9472.00   1.35033131
9474.00   1.36270845
9476.00   1.33731067
9478.00   1.26303804
9480.00   1.05490410
9482.00   1.01105142
9484.00   1.08334875
9486.00   1.17693996
9488.00   1.29953098
9490.00   1.42424703
9492.00   1.42044365
9494.00   1.28580451
9496.00   1.23714244
9498.00   1.20879388
9500.00   1.19925475
9502.00   1.21347344
9504.00   1.24183404
9506.00   1.27040410
9508.00   1.30667377
9510.00   1.34040833
9512.00   1.40305758
9514.00   1.40831602
9516.00   1.34482384
9518.00   1.26238978
9520.00   1.19007778
9522.00   1.10982013
9524.00   1.09182620
9526.00   1.12529945
9528.00   1.16874492
9530.00   1.26446927
9532.00   1.32783711
9534.00   1.29866934
9536.00   1.21966290
9538.00   1.21487355
9540.00   1.26064754
9542.00   1.28678536
9544.00   1.31138110
9546.00   1.33976340
9548.00   1.38587856
9550.00   1.42860568
9552.00   1.40996337
9554.00   1.30783343
9556.00   1.31246507
9558.00   1.43124723
9560.00   1.47259235
9562.00   1.39561141
9564.00   1.29176533
9566.00   1.25932634
9568.00   1.26222849
9570.00   1.26203418
9572.00   1.29004157
9574.00   1.28795266
9576.00   1.24749136
9578.00   1.20539427
9580.00   1.18825102
9582.00   1.18340826
9584.00   1.18466234
9586.00   1.20321345
9588.00   1.20965815
9590.00   1.22231913
9592.00   1.21096802
9594.00   1.14459407
9596.00   1.04929042
9598.00   1.02771974
9600.00   1.06339836
9602.00   1.08668351
9604.00   1.12562585
9606.00   1.15903986
9608.00   1.18679917
9610.00   1.20625234
9612.00   1.20066953
9614.00   1.16849887
9616.00   1.14541197
9618.00   1.11146581
9620.00   1.09291255
9622.00   1.09077692
9624.00   1.10096312
9626.00   1.12406194
9628.00   1.16402447
9630.00   1.19089031
9632.00   1.22192681
9634.00   1.23367286
9636.00   1.23902750
9638.00   1.21570444
9640.00   1.12846613
9642.00   0.98925972
9644.00   0.94827491
9646.00   0.98527038
9648.00   0.99948746
9650.00   1.00287342
9652.00   1.02355981
9654.00   1.08611143
9656.00   1.16843367
9658.00   1.18947005
9660.00   1.16730523
9662.00   1.14103281
9664.00   1.08067489
9666.00   1.03725052
9668.00   1.01494813
9670.00   1.01278007
9672.00   1.05170023
9674.00   1.14610720
9676.00   1.19235837
9678.00   1.23197949
9680.00   1.23710692
9682.00   1.19335008
9684.00   1.13314104
9686.00   1.08963287
9688.00   1.04196620
9690.00   1.03921342
9692.00   1.09119618
9694.00   1.11775899
9696.00   1.13048601
9698.00   1.13057089
9700.00   1.11200631
9702.00   1.07713687
9704.00   1.05305409
9706.00   1.03078544
9708.00   1.00925875
9710.00   0.97621673
9712.00   0.96406025
9714.00   0.99728626
9716.00   1.05377269
9718.00   1.06691492
9720.00   1.04753590
9722.00   1.04330099
9724.00   1.03210104
9726.00   1.03609920
9728.00   1.07145548
9730.00   1.11273682
9732.00   1.11126256
9734.00   1.07526863
9736.00   1.05739486
9738.00   1.04162526
9740.00   1.02691591
9742.00   1.01006925
9744.00   0.99790132
9746.00   0.99871027
9748.00   1.00944972
9750.00   1.02507174
9752.00   1.06576943
9754.00   1.07357240
9756.00   1.04497433
9758.00   1.01038086
9760.00   0.98510379
9762.00   0.96098447
9764.00   0.95981044
9766.00   0.98550016
9768.00   1.00054419
9770.00   1.01292229
9772.00   1.02555907
9774.00   1.04611647
9776.00   1.06557894
9778.00   1.04685247
9780.00   0.96609914
9782.00   0.95837080
9784.00   0.99707496
9786.00   1.04368544
9788.00   1.11185253
9790.00   1.17456889
9792.00   1.16161633
9794.00   1.08153379
9796.00   1.03111196
9798.00   0.97688043
9800.00   0.92847723
9802.00   0.86157590
9804.00   0.82635832
9806.00   0.89661849
9808.00   1.06252193
9810.00   1.11642814
9812.00   1.09672940
9814.00   1.09701443
9816.00   1.10615408
9818.00   1.11289132
9820.00   1.11709917
9822.00   1.11889565
9824.00   1.09004629
9826.00   1.00543320
9828.00   0.98006618
9830.00   1.00326204
9832.00   1.02743638
9834.00   1.03144765
9836.00   1.03363991
9838.00   1.06707370
9840.00   1.15475976
9842.00   1.16638529
9844.00   1.11558473
9846.00   1.07424951
9848.00   1.05203795
9850.00   1.03587925
9852.00   1.02151239
9854.00   1.01116765
9856.00   1.00222337
9858.00   0.98862433
9860.00   0.99099535
9862.00   1.01442409
9864.00   1.04432023
9866.00   1.06802750
9868.00   1.09207296
9870.00   1.10852826
9872.00   1.14256501
9874.00   1.12298036
9876.00   1.02511525
9878.00   0.93961298
9880.00   0.92003542
9882.00   0.93763292
9884.00   0.97917247
9886.00   1.09136522
9888.00   1.13501275
9890.00   1.13429797
9892.00   1.12011564
9894.00   1.09590387
9896.00   1.06254721
9898.00   1.04537368
9900.00   1.04028976
9902.00   1.02686620
9904.00   1.00209737
9906.00   0.99203360
9908.00   1.01209283
9910.00   1.03495467
9912.00   1.01488745
9914.00   0.95546114
9916.00   0.93808091
9918.00   0.93455476
9920.00   0.95246863
9922.00   1.01566148
9924.00   1.07052851
9926.00   1.05275047
9928.00   0.98012888
9930.00   0.98115122
9932.00   1.04334807
9934.00   1.07099938
9936.00   1.06363404
9938.00   1.06617546
9940.00   1.11339009
9942.00   1.18442166
9944.00   1.19485795
9946.00   1.16570377
9948.00   1.12583625
9950.00   1.06488264
9952.00   0.99014795
9954.00   0.87781560
9956.00   0.76289123
9958.00   0.76945376
9960.00   0.91310626
9962.00   0.95057154
9964.00   0.92629802
9966.00   0.92369968
9968.00   0.95148110
9970.00   0.99467874
9972.00   1.05300868
9974.00   1.14572835
9976.00   1.16453362
9978.00   1.13007796
9980.00   1.08380401
9982.00   1.00415635
9984.00   0.92946881
9986.00   0.89737272
9988.00   0.88883269
9990.00   0.92292422
9992.00   1.04162848
9994.00   1.09084105
9996.00   1.07491624
9998.00   1.05744910
10000.00   1.07092178
10002.00   1.09661198
10004.00   1.11756063
10006.00   1.17952120
10008.00   1.14984369
10010.00   0.99681908
10012.00   0.90292507
10014.00   0.94795316
10016.00   1.04688466
10018.00   1.04766726
10020.00   0.96556491
10022.00   0.97131777
10024.00   1.04826295
10026.00   1.09497285
10028.00   1.10180986
10030.00   1.08784819
10032.00   1.05928814
10034.00   1.00492406
10036.00   0.97611469
10038.00   0.94774020
10040.00   0.94650143
10042.00   1.00626254
10044.00   1.04431820
10046.00   0.96112162
10048.00   0.78419030
10050.00   0.79203260
10052.00   0.97946954
10054.00   1.06379414
10056.00   1.10482609
10058.00   1.09659672
10060.00   0.99854255
10062.00   0.84345067
10064.00   0.83569026
10066.00   0.94763178
10068.00   1.02777267
10070.00   1.14853799
10072.00   1.22794759
10074.00   1.22315097
10076.00   1.18556356
10078.00   1.21924758
10080.00   1.32540905
10082.00   1.33405840
10084.00   1.31190491
10086.00   1.21600342
10088.00   0.96101445
10090.00   0.71476442
10092.00   0.74751163
10094.00   1.02362621
10096.00   1.05164015
10098.00   0.92227399
10100.00   0.83948636
10102.00   0.78735131
10104.00   0.74538362
10106.00   0.71293998
10108.00   0.69235075
10110.00   0.64936364
10112.00   0.55912858
10114.00   0.53879714
10116.00   0.57442373
10118.00   0.63872743
10120.00   0.74099696
10122.00   0.86852717
10124.00   0.89914852
10126.00   0.84147722
10128.00   0.81404871
10130.00   0.75820374
10132.00   0.74177712
10134.00   0.80643135
10136.00   0.89708006
10138.00   0.89894050
10140.00   0.82790548
10142.00   0.80555862
10144.00   0.77717543
10146.00   0.79359573
10148.00   0.90660369
10150.00   1.01056981
10152.00   0.94203508
10154.00   0.71375024
10156.00   0.70494503
10158.00   0.90440077
10160.00   0.97105724
10162.00   0.88129556
10164.00   0.79291779
10166.00   0.83868337
10168.00   0.96554881
10170.00   0.93168581
10172.00   0.72453111
10174.00   0.64999515
10176.00   0.68101346
10178.00   0.71566248
10180.00   0.72128385
10182.00   0.71451670
10184.00   0.65299946
10186.00   0.45060390
10188.00   0.45029971
10190.00   0.61756504
10192.00   0.77162182
10194.00   0.88645864
10196.00   0.97989601
10198.00   1.01344812
10200.00   0.97025460
10202.00   0.99105340
10204.00   1.09126508
10206.00   1.09857762
10208.00   0.95566493
10210.00   0.79173261
10212.00   0.75497192
10214.00   0.78880697
10216.00   0.84197658
10218.00   0.99288905
10220.00   1.05017877
10222.00   0.99663424
10224.00   0.93527311
10226.00   0.94723701
10228.00   0.99661118
10230.00   0.96732199
10232.00   0.85430723
10234.00   0.80267555
10236.00   0.77922273
10238.00   0.78455269
10240.00   0.84343237
10242.00   0.92963976
10244.00   0.91429329
10246.00   0.78374439
10248.00   0.74560565
10250.00   0.74015957
10252.00   0.76267201
10254.00   0.83327961
10256.00   0.91792095
10258.00   0.93265390
10260.00   0.88303316
10262.00   0.89467126
10264.00   0.97125173
10266.00   0.98728627
10268.00   0.91800135
10270.00   0.82705212
10272.00   0.77067953
10274.00   0.71323687
10276.00   0.73992532
10278.00   0.91232854
10280.00   0.95278043
10282.00   0.84393567
10284.00   0.72510290
10286.00   0.68225050
10288.00   0.67195207
10290.00   0.69813782
10292.00   0.81489193
10294.00   0.84134698
10296.00   0.77695853
10298.00   0.73318714
10300.00   0.76119018
10302.00   0.82257646
10304.00   0.85997087
10306.00   0.95704228
10308.00   0.89373571
10310.00   0.58646548
10312.00   0.45083231
10314.00   0.63461405
10316.00   0.92646652
10318.00   1.01794267
10320.00   1.02877045
10322.00   0.97137296
10324.00   0.75037849
10326.00   0.63714796
10328.00   0.67262942
10330.00   0.73709428
10332.00   0.70207983
10334.00   0.59159094
10336.00   0.67461669
10338.00   1.00439525
10340.00   1.13985300
10342.00   1.11632693
10344.00   1.01752317
10346.00   0.85146463
10348.00   0.61070335
10350.00   0.53766394
10352.00   0.65153050
10354.00   0.61500657
10356.00   0.43465278
10358.00   0.30694923
10360.00   0.29271129
10362.00   0.35493132
10364.00   0.52805960
10366.00   0.98569375
10368.00   1.05740321
10370.00   0.81569773
10372.00   0.61888474
10374.00   0.51629055
10376.00   0.45008376
10378.00   0.41765669
10380.00   0.42637342
10382.00   0.44498858
10384.00   0.51555985
10386.00   0.54177833
10388.00   0.51384747
10390.00   0.46707428
10392.00   0.41558814
10394.00   0.33292949
10396.00   0.40002531
10398.00   0.67123860
10400.00   0.78916794
10402.00   0.80510747
10404.00   0.74082851
10406.00   0.54771668
10408.00   0.25048104
10410.00   0.22750202
10412.00   0.40215442
10414.00   0.59386671
10416.00   0.98948979
10418.00   1.21599555
10420.00   1.07428348
10422.00   0.74698400
10424.00   0.61388707
10426.00   0.51525080
10428.00   0.51985681
10430.00   0.69056737
10432.00   0.79142886
10434.00   0.75488901
10436.00   0.68815607
10438.00   0.73391259
10440.00   0.86514848
10442.00   0.92385989
10444.00   0.98474795
10446.00   0.97253311
10448.00   0.82407445
10450.00   0.68859547
10452.00   0.74727070
10454.00   0.95530367
10456.00   0.94616491
10458.00   0.74731708
10460.00   0.65400696
10462.00   0.62701070
10464.00   0.63419932
10466.00   0.68059069
10468.00   0.76240367
10470.00   0.76979989
10472.00   0.65547335
10474.00   0.70288473
10476.00   0.94008654
10478.00   1.09915066
10480.00   1.06603634
10482.00   0.94400084
10484.00   0.89820635
10486.00   0.85856199
10488.00   0.85639477
10490.00   0.90238506
10492.00   0.93932092
10494.00   0.95009547
10496.00   0.96391934
10498.00   1.02409613
10500.00   1.13632035
10502.00   1.17461991
10504.00   1.16392100
10506.00   1.14885652
10508.00   1.12842715
10510.00   1.09584045
10512.00   1.05803347
10514.00   1.02167332
10516.00   0.87863129
10518.00   0.52528203
10520.00   0.40416676
10522.00   0.49070966
10524.00   0.64295912
10526.00   0.82814193
10528.00   1.05876100
10530.00   1.09177470
10532.00   0.94726908
10534.00   0.84255713
10536.00   0.66522568
10538.00   0.56212342
10540.00   0.59496355
10542.00   0.70460749
10544.00   0.79957020
10546.00   0.92713237
10548.00   1.03752518
10550.00   1.17502666
10552.00   1.25599205
10554.00   1.28648555
10556.00   1.25374103
10558.00   1.09072316
10560.00   0.73411286
10562.00   0.69826806
10564.00   0.96834844
10566.00   1.09524560
10568.00   1.06206286
10570.00   1.00793421
10572.00   1.04120481
10574.00   1.12262881
10576.00   1.11415100
10578.00   1.07154191
10580.00   0.96387076
10582.00   0.68072331
10584.00   0.51052469
10586.00   0.66836411
10588.00   1.01953173
10590.00   1.13859069
10592.00   1.15051639
10594.00   1.14087605
10596.00   0.99492681
10598.00   0.95912415
10600.00   1.17935038
10602.00   1.48552668
10604.00   1.50373733
10606.00   1.29038203
10608.00   1.18949258
10610.00   1.05987418
10612.00   1.00710797
10614.00   1.09191847
10616.00   1.19743681
10618.00   1.15300667
10620.00   1.00395060
10622.00   0.90344435
10624.00   0.75303328
10626.00   0.70406890
10628.00   0.79297709
10630.00   0.89990968
10632.00   0.92834878
10634.00   0.92347771
10636.00   0.89043158
10638.00   0.79035878
10640.00   0.74216455
10642.00   0.73940223
10644.00   0.73781443
10646.00   0.70385313
10648.00   0.66088611
10650.00   0.69835633
10652.00   0.86175174
10654.00   0.89177877
10656.00   0.76683372
10658.00   0.74149460
10660.00   0.96413004
10662.00   1.25110710
10664.00   1.20692897
10666.00   0.83690357
10668.00   0.74594134
10670.00   0.81724334
10672.00   0.85427409
10674.00   0.83377761
10676.00   0.80683821
10678.00   0.81184232
10680.00   0.83052987
10682.00   0.87614691
10684.00   0.98245317
10686.00   1.03305674
10688.00   1.01754463
10690.00   0.99187750
10692.00   0.99622667
10694.00   1.01160157
10696.00   1.03364336
10698.00   1.10518706
10700.00   1.09313810
10702.00   1.01561451
10704.00   0.89784139
10706.00   0.71278882
10708.00   0.48955151
10710.00   0.45153195
10712.00   0.60340583
10714.00   0.65965813
10716.00   0.69389778
10718.00   0.72764546
10720.00   0.75826633
10722.00   0.79293907
10724.00   0.86517984
10726.00   1.00518143
10728.00   1.02871895
10730.00   0.94552869
10732.00   0.89186656
10734.00   0.87564397
10736.00   0.87397188
10738.00   0.87808400
10740.00   0.89259398
10742.00   0.91160464
10744.00   0.94161797
10746.00   0.96845555
10748.00   1.00796366
10750.00   1.02800810
10752.00   0.98725927
10754.00   0.89929962
10756.00   0.90009809
10758.00   0.96781045
10760.00   1.02390349
10762.00   1.11361074
10764.00   1.16560984
10766.00   1.12957692
10768.00   1.04352927
10770.00   1.01459467
10772.00   0.99659967
10774.00   1.01486158
10776.00   1.08777106
10778.00   1.14436793
10780.00   1.18443322
10782.00   1.19877779
10784.00   1.12714684
10786.00   0.93920213
10788.00   0.87261063
10790.00   0.84688389
10792.00   0.88336015
10794.00   1.04447222
10796.00   1.20230544
10798.00   1.17170131
10800.00   0.99249572
10802.00   0.94815761
10804.00   0.97259986
10806.00   0.98674184
10808.00   1.02041757
10810.00   1.03023148
10812.00   0.96691769
10814.00   0.85082597
10816.00   0.79160351
10818.00   0.75743127
10820.00   0.73011607
10822.00   0.68917388
10824.00   0.69781905
10826.00   0.81763458
10828.00   0.99322367
10830.00   1.02026474
