# File created by shivutils (I.Shivvers)
# Blotched regions marked with a #.
# wl(A)   flm    er(optional)
3440.00   0.30503830
3442.00   0.24524251
3444.00   0.09394769
3446.00   0.09230788
3448.00   0.19448355
3450.00   0.16678764
3452.00   0.17586495
3454.00   0.17966655
3456.00   0.20381111
3458.00   0.03286820
3460.00   0.17617327
3462.00   0.16755795
3464.00   0.15836373
3466.00   0.15568045
3468.00   0.11080840
3470.00   0.11076958
3472.00   0.21409045
3474.00   0.20525230
3476.00   0.22525454
3478.00   0.14579096
3480.00   0.23700552
3482.00   0.22104815
3484.00   0.22268045
3486.00   0.18807030
3488.00   0.16420580
3490.00   0.19977064
3492.00   0.28818268
3494.00   0.23888656
3496.00   0.24304712
3498.00   0.23891096
3500.00   0.25805834
3502.00   0.20255162
3504.00   0.17260005
3506.00   0.21568854
3508.00   0.21118547
3510.00   0.25267676
3512.00   0.18304884
3514.00   0.22450362
3516.00   0.22140726
3518.00   0.20049806
3520.00   0.15452497
3522.00   0.19103999
3524.00   0.15544830
3526.00   0.21497248
3528.00   0.19472902
3530.00   0.25641927
3532.00   0.16120647
3534.00   0.17705821
3536.00   0.20492868
3538.00   0.19314753
3540.00   0.21314935
3542.00   0.26129067
3544.00   0.17579527
3546.00   0.20862319
3548.00   0.15216126
3550.00   0.20646681
3552.00   0.14519441
3554.00   0.18111935
3556.00   0.15689141
3558.00   0.19698344
3560.00   0.21292995
3562.00   0.17546876
3564.00   0.17675242
3566.00   0.17985862
3568.00   0.29275405
3570.00   0.25610268
3572.00   0.23778072
3574.00   0.30333498
3576.00   0.23041575
3578.00   0.16563609
3580.00   0.24287224
3582.00   0.21460332
3584.00   0.23349944
3586.00   0.23103528
3588.00   0.23280010
3590.00   0.23066060
3592.00   0.24906059
3594.00   0.25522047
3596.00   0.21733786
3598.00   0.27314869
3600.00   0.21545619
3602.00   0.25556681
3604.00   0.21344867
3606.00   0.20313063
3608.00   0.21265124
3610.00   0.28770906
3612.00   0.27978978
3614.00   0.24188836
3616.00   0.26789477
3618.00   0.23175612
3620.00   0.24517033
3622.00   0.24928655
3624.00   0.31564724
3626.00   0.29361930
3628.00   0.26107967
3630.00   0.31932056
3632.00   0.30827811
3634.00   0.29810873
3636.00   0.25338596
3638.00   0.22187521
3640.00   0.24623331
3642.00   0.25564519
3644.00   0.20775372
3646.00   0.26291201
3648.00   0.34310943
3650.00   0.24734369
3652.00   0.29091659
3654.00   0.30283606
3656.00   0.29384318
3658.00   0.28440294
3660.00   0.29695341
3662.00   0.26725426
3664.00   0.26746842
3666.00   0.26067150
3668.00   0.24406520
3670.00   0.24102552
3672.00   0.25752294
3674.00   0.23674977
3676.00   0.23740228
3678.00   0.23044288
3680.00   0.25152722
3682.00   0.22630562
3684.00   0.25619230
3686.00   0.21846327
3688.00   0.24215174
3690.00   0.27631721
3692.00   0.23123862
3694.00   0.25596529
3696.00   0.23058349
3698.00   0.24233547
3700.00   0.25949559
3702.00   0.18350320
3704.00   0.23065123
3706.00   0.26554960
3708.00   0.24571313
3710.00   0.25012258
3712.00   0.27636328
3714.00   0.23079011
3716.00   0.19845746
3718.00   0.22347064
3720.00   0.21947068
3722.00   0.21036337
3724.00   0.26440927
3726.00   0.23594123
3728.00   0.18390067
3730.00   0.25349799
3732.00   0.21884039
3734.00   0.17452493
3736.00   0.21589442
3738.00   0.22449650
3740.00   0.22307838
3742.00   0.19810221
3744.00   0.18826458
3746.00   0.18430045
3748.00   0.18101700
#3750.00   0.19141868
#3752.00   0.12816098
#3754.00   -0.01627349
#3756.00   -0.20576043
#3758.00   -0.17917100
#3760.00   0.01733718
#3762.00   0.10017670
#3764.00   0.14597125
#3766.00   0.13910227
3768.00   0.14986856
3770.00   0.17094408
3772.00   0.19072096
3774.00   0.16439769
3776.00   0.16641906
3778.00   0.18075779
3780.00   0.15170614
3782.00   0.19017452
3784.00   0.17945601
3786.00   0.17528030
3788.00   0.20125005
3790.00   0.16937254
3792.00   0.16028759
3794.00   0.19552658
3796.00   0.12863617
3798.00   0.15106158
3800.00   0.16916262
3802.00   0.17982025
3804.00   0.16412246
3806.00   0.18587193
3808.00   0.17874794
3810.00   0.18520628
3812.00   0.17062378
3814.00   0.18109667
3816.00   0.19244184
3818.00   0.18599319
3820.00   0.17481250
3822.00   0.18652649
3824.00   0.20162621
3826.00   0.18639471
3828.00   0.20746996
3830.00   0.16572149
3832.00   0.18413734
3834.00   0.24297531
3836.00   0.16550823
3838.00   0.21142985
3840.00   0.18141317
3842.00   0.20744783
3844.00   0.18869844
3846.00   0.19821082
3848.00   0.24277233
3850.00   0.25059381
3852.00   0.28318357
3854.00   0.28503960
3856.00   0.28946981
3858.00   0.30094388
3860.00   0.29492068
3862.00   0.28441063
3864.00   0.27930331
3866.00   0.29582772
3868.00   0.30122912
3870.00   0.31656253
3872.00   0.36327425
3874.00   0.31176409
3876.00   0.33534533
3878.00   0.31986630
3880.00   0.35997468
3882.00   0.38508466
3884.00   0.34256423
3886.00   0.34949297
3888.00   0.38530970
3890.00   0.30454949
3892.00   0.36160752
3894.00   0.39673373
3896.00   0.39975175
3898.00   0.38491103
3900.00   0.44168401
3902.00   0.45963681
3904.00   0.43494135
3906.00   0.44429415
3908.00   0.45206153
3910.00   0.48641413
3912.00   0.48090157
3914.00   0.48989689
3916.00   0.52385974
3918.00   0.43681747
3920.00   0.48640403
3922.00   0.52392864
3924.00   0.52043784
3926.00   0.49634972
3928.00   0.50002038
3930.00   0.53001022
3932.00   0.52399266
3934.00   0.49591848
3936.00   0.53887522
3938.00   0.55369991
3940.00   0.55150932
3942.00   0.60896498
3944.00   0.55323988
3946.00   0.59700066
3948.00   0.55776834
3950.00   0.57939309
3952.00   0.60849386
3954.00   0.60304487
3956.00   0.57335168
3958.00   0.60759771
3960.00   0.58378679
3962.00   0.60681790
3964.00   0.57595080
3966.00   0.52701145
3968.00   0.58998984
3970.00   0.62423015
3972.00   0.63157302
3974.00   0.62575591
3976.00   0.65915662
3978.00   0.61486006
3980.00   0.64539427
3982.00   0.63059711
3984.00   0.60551918
3986.00   0.67290640
3988.00   0.63457292
3990.00   0.62168103
3992.00   0.63595289
3994.00   0.63781887
3996.00   0.62986642
3998.00   0.63437182
4000.00   0.54758024
4002.00   0.53778434
4004.00   0.61831951
4006.00   0.62526298
4008.00   0.63689405
4010.00   0.59991252
4012.00   0.62259048
4014.00   0.60924864
4016.00   0.65525800
4018.00   0.63622862
4020.00   0.65168858
4022.00   0.64336514
4024.00   0.66060549
4026.00   0.59241295
4028.00   0.57547188
4030.00   0.57930231
4032.00   0.61140978
4034.00   0.61787832
4036.00   0.56159168
4038.00   0.55946654
4040.00   0.54630899
4042.00   0.57264572
4044.00   0.58360201
4046.00   0.59159070
4048.00   0.47533283
4050.00   0.49168202
4052.00   0.51001519
4054.00   0.52240801
4056.00   0.51487130
4058.00   0.48409739
4060.00   0.50224960
4062.00   0.48813927
4064.00   0.50425965
4066.00   0.48540178
4068.00   0.50124693
4070.00   0.52192706
4072.00   0.44956648
4074.00   0.44922450
4076.00   0.43864995
4078.00   0.42387155
4080.00   0.40771404
4082.00   0.41566983
4084.00   0.42549211
4086.00   0.42266873
4088.00   0.45153159
4090.00   0.38350359
4092.00   0.39116144
4094.00   0.39579785
4096.00   0.40174615
4098.00   0.40944692
4100.00   0.35609025
4102.00   0.37313467
4104.00   0.38125280
4106.00   0.37101471
4108.00   0.36467013
4110.00   0.39107630
4112.00   0.40575105
4114.00   0.39452317
4116.00   0.41291502
4118.00   0.38434935
4120.00   0.43177986
4122.00   0.42657039
4124.00   0.41229600
4126.00   0.37138027
4128.00   0.35949171
4130.00   0.37238267
4132.00   0.34739885
4134.00   0.27821645
4136.00   0.31202105
4138.00   0.34044528
4140.00   0.35412854
4142.00   0.36000124
4144.00   0.36680591
4146.00   0.34868723
4148.00   0.33947235
4150.00   0.34766209
4152.00   0.32970610
4154.00   0.33365813
4156.00   0.35818148
4158.00   0.33891857
4160.00   0.35802835
4162.00   0.34885031
4164.00   0.36114377
4166.00   0.37653613
4168.00   0.38567308
4170.00   0.36377621
4172.00   0.35990334
4174.00   0.38302851
4176.00   0.41232169
4178.00   0.37452376
4180.00   0.35804811
4182.00   0.37879834
4184.00   0.36984348
4186.00   0.36283663
4188.00   0.34006009
4190.00   0.36467078
4192.00   0.35584447
4194.00   0.36181802
4196.00   0.36483324
4198.00   0.37430862
4200.00   0.35239390
4202.00   0.37587214
4204.00   0.36120480
4206.00   0.37132144
4208.00   0.36415267
4210.00   0.38841084
4212.00   0.40758437
4214.00   0.37581658
4216.00   0.38737896
4218.00   0.38952866
4220.00   0.40092614
4222.00   0.36299214
4224.00   0.36278948
4226.00   0.36360970
4228.00   0.38528222
4230.00   0.37604788
4232.00   0.41313964
4234.00   0.39527592
4236.00   0.39855221
4238.00   0.38106126
4240.00   0.35870591
4242.00   0.37928590
4244.00   0.39595306
4246.00   0.38132787
4248.00   0.34403220
4250.00   0.36354879
4252.00   0.39538157
4254.00   0.38639691
4256.00   0.35264808
4258.00   0.34893894
4260.00   0.37130585
4262.00   0.37691304
4264.00   0.37740436
4266.00   0.31568235
4268.00   0.35040185
4270.00   0.37589249
4272.00   0.40253106
4274.00   0.34495050
4276.00   0.36525565
4278.00   0.36242175
4280.00   0.31730580
4282.00   0.35757515
4284.00   0.35460541
4286.00   0.35538346
4288.00   0.37823662
4290.00   0.37470263
4292.00   0.36021537
4294.00   0.35261929
4296.00   0.33853900
4298.00   0.37105665
4300.00   0.36426705
4302.00   0.35095289
4304.00   0.35333613
4306.00   0.34739497
4308.00   0.36099896
4310.00   0.36664942
4312.00   0.39215133
4314.00   0.33326319
4316.00   0.31401059
4318.00   0.32957885
4320.00   0.34783566
4322.00   0.36075282
4324.00   0.35427153
4326.00   0.34177983
4328.00   0.35033804
4330.00   0.33756328
4332.00   0.33700082
4334.00   0.35667235
4336.00   0.36336815
4338.00   0.39818513
4340.00   0.33728674
4342.00   0.35458392
4344.00   0.38596761
4346.00   0.36418155
4348.00   0.35448959
4350.00   0.40370151
4352.00   0.38583922
4354.00   0.40356535
4356.00   0.45313284
4358.00   0.36528331
4360.00   0.31417957
4362.00   0.39552101
4364.00   0.39351964
4366.00   0.39137036
4368.00   0.37372604
4370.00   0.38619050
4372.00   0.34105092
4374.00   0.25280431
4376.00   0.29736367
4378.00   0.38917881
4380.00   0.41167149
4382.00   0.41708934
4384.00   0.39607573
4386.00   0.42565280
4388.00   0.41326931
4390.00   0.42845467
4392.00   0.41504371
4394.00   0.38655216
4396.00   0.41878030
4398.00   0.43005195
4400.00   0.42021617
4402.00   0.41761762
4404.00   0.44144970
4406.00   0.40862384
4408.00   0.42259422
4410.00   0.42777812
4412.00   0.41444334
4414.00   0.43195155
4416.00   0.47277391
4418.00   0.44062418
4420.00   0.41526148
4422.00   0.42877334
4424.00   0.45194399
4426.00   0.43305171
4428.00   0.46231559
4430.00   0.42713404
4432.00   0.45776594
4434.00   0.46953043
4436.00   0.43773091
4438.00   0.44971716
4440.00   0.47128904
4442.00   0.48567599
4444.00   0.48972005
4446.00   0.45530802
4448.00   0.46141317
4450.00   0.47284752
4452.00   0.48950797
4454.00   0.49865586
4456.00   0.51270443
4458.00   0.48364592
4460.00   0.49444574
4462.00   0.49043494
4464.00   0.49804130
4466.00   0.50079238
4468.00   0.52937335
4470.00   0.51096141
4472.00   0.51654273
4474.00   0.54855675
4476.00   0.52315152
4478.00   0.54872441
4480.00   0.56389189
4482.00   0.54260004
4484.00   0.54761660
4486.00   0.57631761
4488.00   0.56516570
4490.00   0.58663136
4492.00   0.58372486
4494.00   0.57458609
4496.00   0.59334981
4498.00   0.58068430
4500.00   0.61610997
4502.00   0.59910548
4504.00   0.56866926
4506.00   0.60021114
4508.00   0.60697955
4510.00   0.62021393
4512.00   0.62802267
4514.00   0.61677343
4516.00   0.63378388
4518.00   0.64467728
4520.00   0.62714028
4522.00   0.65328604
4524.00   0.65676445
4526.00   0.66763729
4528.00   0.68197536
4530.00   0.71010697
4532.00   0.62864023
4534.00   0.65835243
4536.00   0.67775512
4538.00   0.71155280
4540.00   0.69425684
4542.00   0.66249287
4544.00   0.69695199
4546.00   0.71558440
4548.00   0.70303637
4550.00   0.69554359
4552.00   0.68242621
4554.00   0.71705216
4556.00   0.74726665
4558.00   0.72624838
4560.00   0.72714365
4562.00   0.69924098
4564.00   0.71694261
4566.00   0.73314834
4568.00   0.73421335
4570.00   0.74833256
4572.00   0.71504050
4574.00   0.75962943
4576.00   0.72901279
4578.00   0.73349547
4580.00   0.73825884
4582.00   0.73936850
4584.00   0.73965305
4586.00   0.73559082
4588.00   0.74525464
4590.00   0.75565982
4592.00   0.76183259
4594.00   0.73853934
4596.00   0.75179923
4598.00   0.72725779
4600.00   0.73207283
4602.00   0.75171202
4604.00   0.74845654
4606.00   0.71852922
4608.00   0.70976907
4610.00   0.72102481
4612.00   0.74027979
4614.00   0.73135704
4616.00   0.68274707
4618.00   0.70859963
4620.00   0.74918723
4622.00   0.72683728
4624.00   0.70909047
4626.00   0.73892295
4628.00   0.72137964
4630.00   0.70853055
4632.00   0.71012509
4634.00   0.69225413
4636.00   0.71407282
4638.00   0.70241874
4640.00   0.71460313
4642.00   0.68629432
4644.00   0.69207674
4646.00   0.69053996
4648.00   0.66601586
4650.00   0.67342466
4652.00   0.67016947
4654.00   0.67881477
4656.00   0.68548810
4658.00   0.68668783
4660.00   0.69495052
4662.00   0.69647586
4664.00   0.68742651
4666.00   0.70158184
4668.00   0.70295322
4670.00   0.73357832
4672.00   0.68757004
4674.00   0.66850209
4676.00   0.70145881
4678.00   0.73166436
4680.00   0.71497899
4682.00   0.69691271
4684.00   0.70914280
4686.00   0.70507205
4688.00   0.67088121
4690.00   0.68588418
4692.00   0.68063992
4694.00   0.66451842
4696.00   0.64811975
4698.00   0.66997725
4700.00   0.66728050
4702.00   0.66010618
4704.00   0.65240586
4706.00   0.67239541
4708.00   0.66549271
4710.00   0.67806453
4712.00   0.69018489
4714.00   0.66693377
4716.00   0.70861661
4718.00   0.67264801
4720.00   0.69024903
4722.00   0.70746082
4724.00   0.68611079
4726.00   0.66581511
4728.00   0.63212049
4730.00   0.66317725
4732.00   0.64623511
4734.00   0.64898860
4736.00   0.62873894
4738.00   0.60919821
4740.00   0.60188717
4742.00   0.61719143
4744.00   0.59063458
4746.00   0.55745673
4748.00   0.58926934
4750.00   0.58150232
4752.00   0.56871289
4754.00   0.61734962
4756.00   0.60767591
4758.00   0.59663033
4760.00   0.61288399
4762.00   0.56610543
4764.00   0.55731773
4766.00   0.55723298
4768.00   0.56590390
4770.00   0.56537604
4772.00   0.55021405
4774.00   0.56619537
4776.00   0.55495667
4778.00   0.55273211
4780.00   0.56492686
4782.00   0.53705841
4784.00   0.54738617
4786.00   0.54961318
4788.00   0.54308420
4790.00   0.53574020
4792.00   0.56503510
4794.00   0.54850727
4796.00   0.53480113
4798.00   0.53312486
4800.00   0.52800322
4802.00   0.51487708
4804.00   0.52852792
4806.00   0.51630509
4808.00   0.54213351
4810.00   0.54656363
4812.00   0.53404689
4814.00   0.53230250
4816.00   0.55087912
4818.00   0.54653013
4820.00   0.54990149
4822.00   0.52527273
4824.00   0.53658134
4826.00   0.55537885
4828.00   0.52674752
4830.00   0.52223498
4832.00   0.52992958
4834.00   0.54431313
4836.00   0.53548032
4838.00   0.55094814
4840.00   0.55855644
4842.00   0.54717457
4844.00   0.55145931
4846.00   0.52757257
4848.00   0.52898353
4850.00   0.55374604
4852.00   0.52578735
4854.00   0.52987164
4856.00   0.52675885
4858.00   0.53961158
4860.00   0.50564158
4862.00   0.53841519
4864.00   0.52446598
4866.00   0.52517009
4868.00   0.52749318
4870.00   0.53742689
4872.00   0.48852766
4874.00   0.49398115
4876.00   0.50905013
4878.00   0.49027649
4880.00   0.46676934
4882.00   0.46052620
4884.00   0.46634978
4886.00   0.44969061
4888.00   0.47917461
4890.00   0.43488377
#4892.00   0.47023353
#4894.00   0.45282724
#4896.00   0.44348302
#4898.00   0.32944736
#4900.00   0.18186265
#4902.00   0.29733533
#4904.00   0.44190621
#4906.00   0.46236041
4908.00   0.46963328
4910.00   0.47456199
4912.00   0.47337022
4914.00   0.48580831
4916.00   0.48049775
4918.00   0.47576123
4920.00   0.45831603
4922.00   0.47428170
4924.00   0.50783622
4926.00   0.50787359
4928.00   0.50657201
4930.00   0.48312673
4932.00   0.49235183
4934.00   0.47662047
4936.00   0.48380753
4938.00   0.51358956
4940.00   0.48714685
4942.00   0.47186804
4944.00   0.47402599
4946.00   0.50612897
4948.00   0.51052278
4950.00   0.52264017
4952.00   0.53250098
4954.00   0.54711026
4956.00   0.53279042
4958.00   0.53241163
4960.00   0.53432155
4962.00   0.53458375
4964.00   0.52585959
4966.00   0.52901131
4968.00   0.55005455
4970.00   0.51056427
4972.00   0.56018722
4974.00   0.53984076
4976.00   0.56365383
4978.00   0.52655834
4980.00   0.53053772
4982.00   0.53331149
4984.00   0.56571525
4986.00   0.54305208
4988.00   0.52753913
4990.00   0.54120785
4992.00   0.57117039
4994.00   0.55041790
4996.00   0.53660971
4998.00   0.50452125
5000.00   0.50562161
5002.00   0.53174329
5004.00   0.56202745
5006.00   0.57313567
5008.00   0.57975191
5010.00   0.55652708
5012.00   0.56151497
5014.00   0.55111313
5016.00   0.57838136
5018.00   0.55834758
5020.00   0.56075543
5022.00   0.55116057
5024.00   0.53064448
5026.00   0.52776474
5028.00   0.53713596
5030.00   0.56186920
5032.00   0.51860303
5034.00   0.52756649
5036.00   0.52176267
#5038.00   0.53039986
#5040.00   0.53437299
#5042.00   0.50406200
#5044.00   0.46715391
#5046.00   0.34020579
#5048.00   0.35106030
#5050.00   0.47152299
#5052.00   0.50263464
#5054.00   0.54446614
5056.00   0.52086556
5058.00   0.52054417
5060.00   0.52419960
5062.00   0.55263740
5064.00   0.54678106
5066.00   0.54747510
5068.00   0.54842848
5070.00   0.53566223
5072.00   0.54279858
5074.00   0.55764365
5076.00   0.56097090
5078.00   0.56529796
5080.00   0.56172329
5082.00   0.55601299
5084.00   0.58436233
5086.00   0.60765928
5088.00   0.54365957
5090.00   0.55913544
5092.00   0.56924677
5094.00   0.55900031
5096.00   0.55842716
5098.00   0.58406156
5100.00   0.60375661
5102.00   0.59799302
5104.00   0.56823415
5106.00   0.59427559
5108.00   0.60195845
5110.00   0.58691043
5112.00   0.56980866
5114.00   0.57989305
5116.00   0.60866958
5118.00   0.60376000
5120.00   0.57805055
5122.00   0.59417719
5124.00   0.58370632
5126.00   0.59807396
5128.00   0.61825061
5130.00   0.61433327
5132.00   0.61761773
5134.00   0.60634720
5136.00   0.64794630
5138.00   0.61957514
5140.00   0.61511374
5142.00   0.60330009
5144.00   0.63184935
5146.00   0.61738706
5148.00   0.61550826
5150.00   0.64114898
5152.00   0.69050777
5154.00   0.70018852
5156.00   0.64987987
5158.00   0.66371280
5160.00   0.66088456
5162.00   0.66336036
5164.00   0.68663710
5166.00   0.68375707
5168.00   0.68586868
5170.00   0.67963141
5172.00   0.67301780
5174.00   0.68285561
5176.00   0.69319957
5178.00   0.69543356
5180.00   0.67990053
5182.00   0.68564725
5184.00   0.67615342
5186.00   0.67384475
5188.00   0.66931146
5190.00   0.66667366
5192.00   0.69884223
5194.00   0.67637414
5196.00   0.70915943
5198.00   0.70017594
5200.00   0.73111212
5202.00   0.71448064
5204.00   0.70803899
5206.00   0.73594379
5208.00   0.72117054
5210.00   0.73333567
5212.00   0.71148711
5214.00   0.74344683
5216.00   0.75084996
5218.00   0.74524939
5220.00   0.77839512
5222.00   0.76307970
5224.00   0.76734751
5226.00   0.75028682
5228.00   0.79726022
5230.00   0.76850301
5232.00   0.78883100
5234.00   0.78457183
5236.00   0.78209883
5238.00   0.80867666
5240.00   0.79172474
5242.00   0.77121335
5244.00   0.80834544
5246.00   0.79084080
5248.00   0.81583905
5250.00   0.81165224
5252.00   0.83385956
5254.00   0.85232949
5256.00   0.82446134
5258.00   0.83069569
5260.00   0.83711773
5262.00   0.81922370
5264.00   0.83739787
5266.00   0.85925466
5268.00   0.87896603
5270.00   0.82914966
5272.00   0.82752520
5274.00   0.82597941
5276.00   0.86015445
5278.00   0.87345541
5280.00   0.85775822
5282.00   0.88452673
5284.00   0.90510970
5286.00   0.89279383
5288.00   0.90260243
5290.00   0.88990867
5292.00   0.87261254
5294.00   0.89333534
5296.00   0.90395963
5298.00   0.90897763
5300.00   0.89396274
5302.00   0.89203507
5304.00   0.91686004
5306.00   0.92734385
5308.00   0.93610483
5310.00   0.91778070
5312.00   0.91965693
5314.00   0.95134366
5316.00   0.92584735
5318.00   0.92455435
5320.00   0.97780871
5322.00   0.95355922
5324.00   0.96279109
5326.00   0.97765267
5328.00   0.97098982
5330.00   0.94956231
5332.00   0.96848923
5334.00   0.97468960
5336.00   0.97003090
5338.00   1.00002444
5340.00   0.98557377
5342.00   1.00508070
5344.00   0.98070347
5346.00   0.97368652
5348.00   0.97993463
5350.00   0.98364401
5352.00   1.00831270
5354.00   1.03664339
5356.00   1.00175333
5358.00   0.99971980
5360.00   0.99944210
5362.00   1.00188947
5364.00   1.02855158
5366.00   1.04981649
5368.00   1.09828913
5370.00   1.03384840
5372.00   1.04076016
5374.00   1.02362311
5376.00   1.04648650
5378.00   1.02162576
5380.00   1.06355619
5382.00   1.07149172
5384.00   1.05674982
5386.00   1.08326340
5388.00   1.06217372
5390.00   1.09747982
5392.00   1.07110775
5394.00   1.05582881
5396.00   1.07401383
5398.00   1.08930635
5400.00   1.08047199
5402.00   1.09283996
5404.00   1.10905766
5406.00   1.09327424
5408.00   1.13960469
5410.00   1.09794569
5412.00   1.12574875
5414.00   1.07811165
5416.00   1.11463594
5418.00   1.13375568
5420.00   1.07798803
5422.00   1.09170496
5424.00   1.08626235
5426.00   1.12887859
5428.00   1.06548417
5430.00   1.06696856
5432.00   1.08866811
5434.00   1.09528792
5436.00   1.09521544
5438.00   1.08275664
5440.00   1.08137703
5442.00   1.08305943
5444.00   1.09669220
5446.00   1.10176075
5448.00   1.10761631
5450.00   1.09834683
5452.00   1.06148016
5454.00   1.05720484
5456.00   1.08869410
5458.00   1.10422921
5460.00   1.08438289
5462.00   1.04799175
5464.00   1.02055430
5466.00   0.98149127
5468.00   0.97450870
5470.00   1.00237572
5472.00   1.01885509
5474.00   1.01855862
5476.00   1.01220047
5478.00   1.00646305
5480.00   0.99699503
5482.00   0.99334234
5484.00   0.99461657
5486.00   0.99422026
5488.00   0.99407452
5490.00   0.99159223
5492.00   0.98338372
5494.00   0.97064418
5496.00   0.96054739
5498.00   0.95098144
5500.00   0.94095731
5502.00   0.93117571
5504.00   0.92039376
5506.00   0.90591115
5508.00   0.89016968
5510.00   0.88588917
5512.00   0.89258558
5514.00   0.89643496
5516.00   0.90230829
5518.00   0.90782851
5520.00   0.91170382
5522.00   0.91569185
5524.00   0.92345977
5526.00   0.93666643
5528.00   0.94156116
5530.00   0.93962008
5532.00   0.93896115
5534.00   0.94101542
5536.00   0.94216388
5538.00   0.93815643
5540.00   0.92935371
5542.00   0.92686123
5544.00   0.93138349
5546.00   0.92952454
5548.00   0.91888511
5550.00   0.90984470
5552.00   0.91007847
5554.00   0.91588396
5556.00   0.91951966
5558.00   0.91964692
5560.00   0.92934752
5562.00   0.94914556
5564.00   0.96956319
5566.00   0.99263769
5568.00   1.01400876
5570.00   1.00523865
5572.00   0.96469754
5574.00   0.93591350
5576.00   0.90123385
5578.00   0.87379336
5580.00   0.85732090
5582.00   0.84625548
5584.00   0.83288503
5586.00   0.81667703
5588.00   0.81595749
5590.00   0.83395714
5592.00   0.84382474
5594.00   0.84476483
5596.00   0.84298307
5598.00   0.84237790
5600.00   0.84123147
5602.00   0.83914191
5604.00   0.83571202
5606.00   0.83261698
5608.00   0.83132905
5610.00   0.82752401
5612.00   0.81580526
5614.00   0.79943573
5616.00   0.79917157
5618.00   0.81930864
5620.00   0.82142186
5622.00   0.81133592
5624.00   0.80043322
5626.00   0.79120457
5628.00   0.78218687
5630.00   0.77610242
5632.00   0.77412206
5634.00   0.76761031
5636.00   0.75767446
5638.00   0.74863982
5640.00   0.74084592
5642.00   0.73368132
5644.00   0.72755295
5646.00   0.72370142
5648.00   0.71381789
5650.00   0.69497776
5652.00   0.68414927
5654.00   0.68410945
5656.00   0.68435192
5658.00   0.67552245
5660.00   0.66121137
5662.00   0.65396023
5664.00   0.65138322
5666.00   0.64761138
5668.00   0.64319289
5670.00   0.63980478
5672.00   0.63900965
5674.00   0.63958645
5676.00   0.63614571
5678.00   0.62843436
5680.00   0.62380761
5682.00   0.62091279
5684.00   0.61770630
5686.00   0.61443347
5688.00   0.61040354
5690.00   0.60259974
5692.00   0.58964241
5694.00   0.58262491
5696.00   0.57763821
5698.00   0.57614940
5700.00   0.58038837
5702.00   0.58574700
5704.00   0.58544779
5706.00   0.58060467
5708.00   0.58410281
5710.00   0.59744060
5712.00   0.60305941
5714.00   0.59854591
5716.00   0.59543979
5718.00   0.60331434
5720.00   0.61788493
5722.00   0.62260944
5724.00   0.62011594
5726.00   0.62030071
5728.00   0.62073117
5730.00   0.62173551
5732.00   0.62249070
5734.00   0.62408507
5736.00   0.63225025
5738.00   0.64888883
5740.00   0.65983224
5742.00   0.67021680
5744.00   0.67745864
5746.00   0.68151098
5748.00   0.68221813
5750.00   0.67771167
5752.00   0.66513771
5754.00   0.66218966
5756.00   0.66292036
5758.00   0.66860497
5760.00   0.68243593
5762.00   0.69742197
5764.00   0.70530111
5766.00   0.70887595
5768.00   0.71644622
5770.00   0.72741073
5772.00   0.73506391
5774.00   0.74051398
5776.00   0.74389273
5778.00   0.74381459
5780.00   0.74109930
5782.00   0.74486470
5784.00   0.75348562
5786.00   0.76180327
5788.00   0.77396792
5790.00   0.78247631
5792.00   0.78220034
5794.00   0.77872235
5796.00   0.78600973
5798.00   0.80469579
5800.00   0.81212425
5802.00   0.81223410
5804.00   0.81331223
5806.00   0.81479245
5808.00   0.81792551
5810.00   0.82754970
5812.00   0.84443337
5814.00   0.85284597
5816.00   0.85622615
5818.00   0.85927302
5820.00   0.86061448
5822.00   0.86220938
5824.00   0.86655021
5826.00   0.87272114
5828.00   0.87730664
5830.00   0.88222265
5832.00   0.88499480
5834.00   0.88374120
5836.00   0.88441777
5838.00   0.89115882
5840.00   0.90121096
5842.00   0.90672392
5844.00   0.90595281
5846.00   0.91416126
5848.00   0.93312770
5850.00   0.94632334
5852.00   0.94756496
5854.00   0.94384646
5856.00   0.94593883
5858.00   0.95222908
5860.00   0.95191473
5862.00   0.94537961
5864.00   0.94115621
5866.00   0.94024944
5868.00   0.94019568
5870.00   0.93921214
5872.00   0.93852800
5874.00   0.93492395
5876.00   0.92776203
5878.00   0.92221826
5880.00   0.91577083
5882.00   0.91262496
5884.00   0.91700161
5886.00   0.92706048
5888.00   0.93632299
5890.00   0.95722800
5892.00   0.95651400
5894.00   0.93148023
5896.00   0.90860921
5898.00   0.89755672
5900.00   0.89253479
5902.00   0.89636916
5904.00   0.91551101
5906.00   0.92389041
5908.00   0.92818975
5910.00   0.93133050
5912.00   0.93624336
5914.00   0.93822056
5916.00   0.92729700
5918.00   0.90237242
5920.00   0.88762969
5922.00   0.87090439
5924.00   0.86600137
5926.00   0.87968040
5928.00   0.89583647
5930.00   0.89812410
5932.00   0.89449418
5934.00   0.87877631
5936.00   0.83798051
5938.00   0.81926352
5940.00   0.81846112
5942.00   0.82658422
5944.00   0.84151399
5946.00   0.86434090
5948.00   0.88086188
5950.00   0.90027905
5952.00   0.90852123
5954.00   0.90608627
5956.00   0.90106815
5958.00   0.89525902
5960.00   0.88782555
5962.00   0.88196230
5964.00   0.87640691
5966.00   0.87142229
5968.00   0.86477602
5970.00   0.86260080
5972.00   0.86798811
5974.00   0.87545007
5976.00   0.87671864
5978.00   0.87435621
5980.00   0.87287915
5982.00   0.87039089
5984.00   0.86831325
5986.00   0.86692977
5988.00   0.86530495
5990.00   0.86294818
5992.00   0.86032724
5994.00   0.85444987
5996.00   0.84403813
5998.00   0.83635557
6000.00   0.82894838
6002.00   0.82437927
6004.00   0.82534242
6006.00   0.82999504
6008.00   0.83044142
6010.00   0.82740647
6012.00   0.82785094
6014.00   0.83287102
6016.00   0.83427787
6018.00   0.82907188
6020.00   0.82044530
6022.00   0.81278557
6024.00   0.80251855
6026.00   0.79753524
6028.00   0.79789150
6030.00   0.79642290
6032.00   0.79144502
6034.00   0.78655267
6036.00   0.78640395
6038.00   0.79089069
6040.00   0.78774327
6042.00   0.77642733
6044.00   0.77072012
6046.00   0.76962292
6048.00   0.77128136
6050.00   0.77630132
6052.00   0.78490400
6054.00   0.78548974
6056.00   0.77950859
6058.00   0.77503252
6060.00   0.76936764
6062.00   0.76481009
6064.00   0.76270199
6066.00   0.76208800
6068.00   0.76137191
6070.00   0.76167333
6072.00   0.76113844
6074.00   0.76140809
6076.00   0.75944930
6078.00   0.75322843
6080.00   0.74580938
6082.00   0.74338639
6084.00   0.74646068
6086.00   0.74129754
6088.00   0.72724110
6090.00   0.71884602
6092.00   0.71824783
6094.00   0.71927786
6096.00   0.71575522
6098.00   0.70933414
6100.00   0.70883512
6102.00   0.71724248
6104.00   0.71619439
6106.00   0.70504969
6108.00   0.69243145
6110.00   0.68253732
6112.00   0.67315990
6114.00   0.67008853
6116.00   0.67586011
6118.00   0.67552853
6120.00   0.67207354
6122.00   0.66740334
6124.00   0.66191334
6126.00   0.65541530
6128.00   0.64856035
6130.00   0.64089900
6132.00   0.63320315
6134.00   0.62315840
6136.00   0.61667192
6138.00   0.61577219
6140.00   0.61706752
6142.00   0.61622167
6144.00   0.61598533
6146.00   0.61106771
6148.00   0.59711629
6150.00   0.59228390
6152.00   0.59977609
6154.00   0.60893428
6156.00   0.61036724
6158.00   0.60794771
6160.00   0.60670078
6162.00   0.60465211
6164.00   0.60277116
6166.00   0.60028577
6168.00   0.59864783
6170.00   0.59846532
6172.00   0.59944528
6174.00   0.60289878
6176.00   0.61313480
6178.00   0.61421561
6180.00   0.60858637
6182.00   0.60133296
6184.00   0.59102148
6186.00   0.58065355
6188.00   0.58251697
6190.00   0.59835225
6192.00   0.60192662
6194.00   0.59992045
6196.00   0.59611356
6198.00   0.58839399
6200.00   0.58079648
6202.00   0.58113939
6204.00   0.58899796
6206.00   0.58626080
6208.00   0.57456785
6210.00   0.56667411
6212.00   0.56085509
6214.00   0.55742240
6216.00   0.55881828
6218.00   0.56454086
6220.00   0.56157315
6222.00   0.54844594
6224.00   0.54414165
6226.00   0.54833412
6228.00   0.55134320
6230.00   0.54773778
6232.00   0.54143673
6234.00   0.54118252
6236.00   0.54648787
6238.00   0.54830229
6240.00   0.54804140
6242.00   0.54914850
6244.00   0.55166048
6246.00   0.55595803
6248.00   0.56499499
6250.00   0.58212882
6252.00   0.58679211
6254.00   0.58139122
6256.00   0.57758290
6258.00   0.57627106
6260.00   0.57440943
6262.00   0.56902874
6264.00   0.56007785
6266.00   0.55815369
6268.00   0.56068957
6270.00   0.56493461
6272.00   0.57366514
6274.00   0.58130765
6276.00   0.58215636
6278.00   0.57891715
6280.00   0.58590811
6282.00   0.60609400
6284.00   0.61354357
6286.00   0.60848600
6288.00   0.60681373
6290.00   0.61551046
6292.00   0.62891883
6294.00   0.63855118
6296.00   0.65266591
6298.00   0.65254140
6300.00   0.63892776
6302.00   0.62552011
6304.00   0.61089706
6306.00   0.59850860
6308.00   0.59997714
6310.00   0.61574775
6312.00   0.61914426
6314.00   0.61309963
6316.00   0.61396533
6318.00   0.62250805
6320.00   0.63406253
6322.00   0.64640081
6324.00   0.66160625
6326.00   0.66831958
6328.00   0.66841513
6330.00   0.66787606
6332.00   0.66226465
6334.00   0.65976340
6336.00   0.66776305
6338.00   0.68177289
6340.00   0.68351942
6342.00   0.67358905
6344.00   0.67144758
6346.00   0.67157745
6348.00   0.67484063
6350.00   0.68351114
6352.00   0.69449174
6354.00   0.69861925
6356.00   0.69618654
6358.00   0.69992751
6360.00   0.71054995
6362.00   0.71487129
6364.00   0.71038866
6366.00   0.70200890
6368.00   0.69332463
6370.00   0.67898762
6372.00   0.68248212
6374.00   0.70455736
6376.00   0.72001183
6378.00   0.73191535
6380.00   0.74005133
6382.00   0.74165767
6384.00   0.73753655
6386.00   0.73639810
6388.00   0.73498470
6390.00   0.73433083
6392.00   0.73226231
6394.00   0.73372847
6396.00   0.74301124
6398.00   0.75678045
6400.00   0.76293707
6402.00   0.77012902
6404.00   0.76384151
6406.00   0.73592335
6408.00   0.72035766
6410.00   0.72944075
6412.00   0.74800527
6414.00   0.75354373
6416.00   0.75360745
6418.00   0.75360584
6420.00   0.75056398
6422.00   0.74832720
6424.00   0.74688935
6426.00   0.74593621
6428.00   0.74595422
6430.00   0.74736345
6432.00   0.74543744
6434.00   0.73918021
6436.00   0.73645729
6438.00   0.73676860
6440.00   0.73852319
6442.00   0.74192500
6444.00   0.74704820
6446.00   0.74588984
6448.00   0.73765332
6450.00   0.73393852
6452.00   0.73223782
6454.00   0.73189509
6456.00   0.73406810
6458.00   0.73727220
6460.00   0.73460096
6462.00   0.72422385
6464.00   0.72186321
6466.00   0.72624344
6468.00   0.72776669
6470.00   0.72355372
6472.00   0.71793330
6474.00   0.71661413
6476.00   0.71782404
6478.00   0.71894908
6480.00   0.72245210
6482.00   0.72340733
6484.00   0.72095215
6486.00   0.71776253
6488.00   0.71584815
6490.00   0.71390361
6492.00   0.71588242
6494.00   0.72589344
6496.00   0.72682369
6498.00   0.71749848
6500.00   0.70825285
6502.00   0.70484310
6504.00   0.70414519
6506.00   0.70446563
6508.00   0.70853609
6510.00   0.70925850
6512.00   0.70709354
6514.00   0.70578432
6516.00   0.70727998
6518.00   0.70951796
6520.00   0.70797861
6522.00   0.70056999
6524.00   0.70219898
6526.00   0.71215886
6528.00   0.71952653
6530.00   0.72382975
6532.00   0.72587329
6534.00   0.72396904
6536.00   0.71691203
6538.00   0.71591574
6540.00   0.71935374
6542.00   0.72131729
6544.00   0.72063267
6546.00   0.72141850
6548.00   0.72787756
6550.00   0.73866665
6552.00   0.74412256
6554.00   0.74849880
6556.00   0.74855870
6558.00   0.74177217
6560.00   0.73619086
6562.00   0.73638535
6564.00   0.73941356
6566.00   0.74029160
6568.00   0.73935264
6570.00   0.74148571
6572.00   0.74903619
6574.00   0.75176603
6576.00   0.74455029
6578.00   0.73398733
6580.00   0.73211110
6582.00   0.73356384
6584.00   0.74137545
6586.00   0.76431298
6588.00   0.77397919
6590.00   0.76731676
#6592.00   0.75245571
#6594.00   0.73338795
#6596.00   0.70337254
#6598.00   0.69838440
#6600.00   0.72420740
#6602.00   0.72686779
#6604.00   0.72395623
#6606.00   0.69241858
#6608.00   0.59778100
#6610.00   0.45347020
#6612.00   0.38552663
#6614.00   0.33499995
#6616.00   0.35345319
#6618.00   0.46435720
#6620.00   0.57583201
#6622.00   0.66012710
#6624.00   0.73136497
#6626.00   0.75313693
#6628.00   0.71916360
#6630.00   0.69884217
#6632.00   0.65501398
#6634.00   0.63393998
#6636.00   0.64743775
#6638.00   0.67922908
#6640.00   0.71250254
#6642.00   0.76159543
#6644.00   0.78901148
#6646.00   0.80451441
6648.00   0.81387025
6650.00   0.81426537
6652.00   0.81082481
6654.00   0.80969805
6656.00   0.80794150
6658.00   0.80736446
6660.00   0.80910033
6662.00   0.80770326
6664.00   0.80228627
6666.00   0.79728305
6668.00   0.79446429
6670.00   0.79293960
6672.00   0.79812294
6674.00   0.81665176
6676.00   0.82029963
6678.00   0.81051761
6680.00   0.80276936
6682.00   0.80314457
6684.00   0.80619878
6686.00   0.80434060
6688.00   0.80251819
6690.00   0.79264116
6692.00   0.76893580
6694.00   0.75489157
6696.00   0.75567019
6698.00   0.76214403
6700.00   0.76463658
6702.00   0.76771116
6704.00   0.76806033
6706.00   0.76714426
6708.00   0.76371175
6710.00   0.75656497
6712.00   0.74866587
6714.00   0.74215823
6716.00   0.73567593
6718.00   0.73415869
6720.00   0.73912638
6722.00   0.74042088
6724.00   0.74040985
6726.00   0.73828441
6728.00   0.73199487
6730.00   0.72316521
6732.00   0.72095907
6734.00   0.72682810
6736.00   0.72492385
6738.00   0.71681452
6740.00   0.71034741
6742.00   0.70751911
6744.00   0.70646578
6746.00   0.70619297
6748.00   0.70807844
6750.00   0.70788944
6752.00   0.70552039
6754.00   0.70506030
6756.00   0.70931292
6758.00   0.71246350
6760.00   0.70663828
6762.00   0.69405681
6764.00   0.68250602
6766.00   0.66430593
6768.00   0.65543514
6770.00   0.65648979
6772.00   0.66100514
6774.00   0.66658086
6776.00   0.67494988
6778.00   0.67136341
6780.00   0.65118295
6782.00   0.64583653
6784.00   0.65111887
6786.00   0.65943122
6788.00   0.66904259
6790.00   0.68056476
6792.00   0.68885529
6794.00   0.69779217
6796.00   0.70039856
6798.00   0.69751108
6800.00   0.69256383
6802.00   0.68402416
6804.00   0.67487276
6806.00   0.67285907
6808.00   0.67572349
6810.00   0.67958450
6812.00   0.69167852
6814.00   0.69408345
6816.00   0.68167520
6818.00   0.66764677
6820.00   0.66626894
6822.00   0.67300493
6824.00   0.67220730
6826.00   0.66784900
6828.00   0.66355234
6830.00   0.65731490
6832.00   0.65249699
6834.00   0.65200645
6836.00   0.65431660
6838.00   0.65445435
6840.00   0.65017503
6842.00   0.65459257
6844.00   0.67007434
6846.00   0.68159461
6848.00   0.68372130
6850.00   0.68076402
6852.00   0.67642993
6854.00   0.66564280
6856.00   0.66237289
6858.00   0.66702378
6860.00   0.66647887
6862.00   0.65677017
6864.00   0.64473450
6866.00   0.63898289
6868.00   0.63577718
6870.00   0.63631815
6872.00   0.64320612
6874.00   0.64742327
6876.00   0.64918929
6878.00   0.64997214
6880.00   0.65032697
6882.00   0.64991111
6884.00   0.64978462
6886.00   0.65196174
6888.00   0.64888626
6890.00   0.63891178
6892.00   0.62980837
6894.00   0.62561464
6896.00   0.62400866
6898.00   0.62372112
6900.00   0.62562984
6902.00   0.62830377
6904.00   0.63523090
6906.00   0.63802391
6908.00   0.63307315
6910.00   0.62444669
6912.00   0.61895949
6914.00   0.61314565
6916.00   0.61056709
6918.00   0.60917497
6920.00   0.61176211
6922.00   0.62080628
6924.00   0.63131493
6926.00   0.63658440
6928.00   0.63939613
6930.00   0.64011091
6932.00   0.63675982
6934.00   0.63504881
6936.00   0.63403928
6938.00   0.63417578
6940.00   0.63738310
6942.00   0.64322627
6944.00   0.64048356
6946.00   0.62372261
6948.00   0.62290341
6950.00   0.63940042
6952.00   0.65262330
6954.00   0.65304041
6956.00   0.64712059
6958.00   0.64247102
6960.00   0.63308150
6962.00   0.63009650
6964.00   0.63243484
6966.00   0.63395417
6968.00   0.63222677
6970.00   0.63061035
6972.00   0.63473809
6974.00   0.64501244
6976.00   0.64920527
6978.00   0.64981657
6980.00   0.65066844
6982.00   0.65174228
6984.00   0.65262967
6986.00   0.65355861
6988.00   0.65479696
6990.00   0.65329856
6992.00   0.64897168
6994.00   0.64521682
6996.00   0.64085740
6998.00   0.63739395
7000.00   0.63541663
7002.00   0.63459277
7004.00   0.63897276
7006.00   0.65161175
7008.00   0.65784264
7010.00   0.65936834
7012.00   0.66126776
7014.00   0.66638255
7016.00   0.67199415
7018.00   0.67161536
7020.00   0.66370833
7022.00   0.66294974
7024.00   0.66808033
7026.00   0.67018819
7028.00   0.66830552
7030.00   0.66373014
7032.00   0.65553808
7034.00   0.64049625
7036.00   0.63788623
7038.00   0.64747369
7040.00   0.65165633
7042.00   0.64985847
7044.00   0.64685649
7046.00   0.64591795
7048.00   0.64564061
7050.00   0.64491367
7052.00   0.64375567
7054.00   0.64328188
7056.00   0.64262724
7058.00   0.64340502
7060.00   0.64845753
7062.00   0.65578121
7064.00   0.65231657
7066.00   0.63747376
7068.00   0.62863564
7070.00   0.61889327
7072.00   0.61415678
7074.00   0.61789906
7076.00   0.62604004
7078.00   0.63017774
7080.00   0.63466245
7082.00   0.63480681
7084.00   0.62855488
7086.00   0.62598580
7088.00   0.62952334
7090.00   0.63422704
7092.00   0.63446152
7094.00   0.63214290
7096.00   0.63012326
7098.00   0.62583727
7100.00   0.62435639
7102.00   0.62580311
7104.00   0.62845755
7106.00   0.63172263
7108.00   0.63613158
7110.00   0.63698149
7112.00   0.63281876
7114.00   0.63348186
7116.00   0.63930297
7118.00   0.64399463
7120.00   0.64455330
7122.00   0.64296156
7124.00   0.64160234
7126.00   0.63706040
7128.00   0.63798976
7130.00   0.64575386
7132.00   0.64955878
7134.00   0.64570785
7136.00   0.63890630
7138.00   0.63579208
7140.00   0.63371301
7142.00   0.63290727
7144.00   0.63258076
7146.00   0.63485920
7148.00   0.64335066
7150.00   0.65039307
7152.00   0.64557123
7154.00   0.63129985
7156.00   0.62428796
7158.00   0.61666763
7160.00   0.61602622
7162.00   0.62484086
7164.00   0.63443846
7166.00   0.63866240
7168.00   0.64058757
7170.00   0.64468026
7172.00   0.65088981
7174.00   0.65432900
7176.00   0.65508109
7178.00   0.65603340
7180.00   0.65937829
7182.00   0.66292781
7184.00   0.66029108
7186.00   0.65136391
7188.00   0.64516127
7190.00   0.63710237
7192.00   0.63250893
7194.00   0.63346851
7196.00   0.63658762
7198.00   0.63650888
7200.00   0.63343513
7202.00   0.63753057
7204.00   0.65020752
7206.00   0.65763587
7208.00   0.66049862
7210.00   0.65984386
7212.00   0.65435183
7214.00   0.64346981
7216.00   0.63940501
7218.00   0.63846087
7220.00   0.63954479
7222.00   0.64414716
7224.00   0.64910454
7226.00   0.65287519
7228.00   0.65625501
7230.00   0.65744555
7232.00   0.65478587
7234.00   0.65591341
7236.00   0.66185749
7238.00   0.66438198
7240.00   0.66107231
7242.00   0.65392721
7244.00   0.64358842
7246.00   0.62418211
7248.00   0.61823082
7250.00   0.62259150
7252.00   0.62662119
7254.00   0.63031721
7256.00   0.63374972
7258.00   0.63468421
7260.00   0.63354361
7262.00   0.63342917
7264.00   0.63393134
7266.00   0.63327807
7268.00   0.63095325
7270.00   0.62859935
7272.00   0.62793928
7274.00   0.62840080
7276.00   0.62578905
7278.00   0.61828017
7280.00   0.61630368
7282.00   0.62059408
7284.00   0.62369782
7286.00   0.62096852
7288.00   0.61571276
7290.00   0.61648381
7292.00   0.62303197
7294.00   0.62581086
7296.00   0.62775010
7298.00   0.62839383
7300.00   0.62717056
7302.00   0.62493771
7304.00   0.62336916
7306.00   0.62019563
7308.00   0.62260783
7310.00   0.63449550
7312.00   0.63791543
7314.00   0.62942791
7316.00   0.61756998
7318.00   0.60997868
7320.00   0.60197252
7322.00   0.60385644
7324.00   0.61883110
7326.00   0.62655050
7328.00   0.63007706
7330.00   0.62934834
7332.00   0.62175554
7334.00   0.60831028
7336.00   0.60254270
7338.00   0.60240239
7340.00   0.59939307
7342.00   0.59432584
7344.00   0.59034729
7346.00   0.58821720
7348.00   0.58761424
7350.00   0.59018773
7352.00   0.59656483
7354.00   0.60231084
7356.00   0.61024964
7358.00   0.61615944
7360.00   0.61869401
7362.00   0.61989486
7364.00   0.62282205
7366.00   0.62777811
7368.00   0.62704933
7370.00   0.62162536
7372.00   0.61576897
7374.00   0.60842794
7376.00   0.60115522
7378.00   0.59590006
7380.00   0.59161288
7382.00   0.58998239
7384.00   0.59185630
7386.00   0.59279418
7388.00   0.59340817
7390.00   0.59414101
7392.00   0.59513915
7394.00   0.59632164
7396.00   0.59755188
7398.00   0.60011572
7400.00   0.59990388
7402.00   0.59632438
7404.00   0.59383631
7406.00   0.59421003
7408.00   0.59578365
7410.00   0.59621471
7412.00   0.59781432
7414.00   0.59498054
7416.00   0.58842236
7418.00   0.58097047
7420.00   0.56978559
7422.00   0.56028575
7424.00   0.56285691
7426.00   0.57637554
7428.00   0.58214903
7430.00   0.58802938
7432.00   0.58819652
7434.00   0.58085376
7436.00   0.57149315
7438.00   0.56450266
7440.00   0.55776656
7442.00   0.55194104
7444.00   0.54708320
7446.00   0.54230219
7448.00   0.53753233
7450.00   0.53340155
7452.00   0.52992499
7454.00   0.52718872
7456.00   0.52684331
7458.00   0.53046811
7460.00   0.53075337
7462.00   0.52821815
7464.00   0.52714461
7466.00   0.52919698
7468.00   0.53237623
7470.00   0.53364980
7472.00   0.53503436
7474.00   0.53286904
7476.00   0.52749401
7478.00   0.52120560
7480.00   0.51349807
7482.00   0.50523591
7484.00   0.49768123
7486.00   0.48978153
7488.00   0.48518550
7490.00   0.48331970
7492.00   0.48230687
7494.00   0.48284897
7496.00   0.48393252
7498.00   0.48478743
7500.00   0.48581436
7502.00   0.48644319
7504.00   0.48761311
7506.00   0.48689783
7508.00   0.48448777
7510.00   0.48135135
7512.00   0.47689980
7514.00   0.47200704
7516.00   0.47178474
7518.00   0.47817007
7520.00   0.47769436
7522.00   0.47235298
7524.00   0.46777010
7526.00   0.46443564
7528.00   0.46201992
7530.00   0.46200079
7532.00   0.46537137
7534.00   0.46436861
7536.00   0.45920950
7538.00   0.45646966
7540.00   0.45629528
7542.00   0.45739242
7544.00   0.45911729
7546.00   0.46184394
7548.00   0.46477234
7550.00   0.46811920
7552.00   0.47203037
7554.00   0.47584561
7556.00   0.48110300
7558.00   0.49031571
7560.00   0.50205171
7562.00   0.50480723
7564.00   0.49757397
7566.00   0.49697888
7568.00   0.50107437
7570.00   0.50366658
7572.00   0.50324541
7574.00   0.50072658
7576.00   0.49454468
7578.00   0.47916228
7580.00   0.47816417
7582.00   0.48983461
7584.00   0.49873662
7586.00   0.50343865
7588.00   0.50625420
7590.00   0.50688428
7592.00   0.50347155
7594.00   0.50727558
7596.00   0.52277130
7598.00   0.52553475
7600.00   0.51159275
7602.00   0.49548724
7604.00   0.48846900
7606.00   0.48508510
7608.00   0.48794517
7610.00   0.49933448
7612.00   0.50914252
7614.00   0.52288771
7616.00   0.53185201
7618.00   0.53126281
7620.00   0.52392006
7622.00   0.51137197
7624.00   0.47999233
7626.00   0.47369009
7628.00   0.49028984
7630.00   0.50216377
7632.00   0.50106603
7634.00   0.49541733
7636.00   0.49404842
7638.00   0.49345708
7640.00   0.49407426
7642.00   0.49397537
7644.00   0.49838838
7646.00   0.51102191
7648.00   0.52420050
7650.00   0.52723724
7652.00   0.52261269
7654.00   0.52450979
7656.00   0.53176540
7658.00   0.53386116
7660.00   0.53043222
7662.00   0.52566314
7664.00   0.52167511
7666.00   0.51725250
7668.00   0.51694459
7670.00   0.52171957
7672.00   0.52338904
7674.00   0.52378714
7676.00   0.52298743
7678.00   0.51859504
7680.00   0.51327622
7682.00   0.52003014
7684.00   0.54069328
7686.00   0.55238312
7688.00   0.56435996
7690.00   0.56972158
7692.00   0.56504226
7694.00   0.55544662
7696.00   0.54942578
7698.00   0.54311448
7700.00   0.53890705
7702.00   0.53511351
7704.00   0.53454393
7706.00   0.54006678
7708.00   0.54526478
7710.00   0.54244405
7712.00   0.53407061
7714.00   0.52837783
7716.00   0.52377033
7718.00   0.51678842
7720.00   0.50655329
7722.00   0.49656948
7724.00   0.48702195
7726.00   0.47782433
7728.00   0.48331457
7730.00   0.50754631
7732.00   0.52069598
7734.00   0.52921689
7736.00   0.53595066
7738.00   0.54144579
7740.00   0.54542834
7742.00   0.54872990
7744.00   0.55101919
7746.00   0.55237502
7748.00   0.55211443
7750.00   0.55211437
7752.00   0.55413425
7754.00   0.55499613
7756.00   0.54885954
7758.00   0.53534371
7760.00   0.52968580
7762.00   0.52600569
7764.00   0.52753383
7766.00   0.53723675
7768.00   0.54786474
7770.00   0.55247909
7772.00   0.55405307
7774.00   0.55555367
7776.00   0.55467993
7778.00   0.55561787
7780.00   0.56124377
7782.00   0.56237417
7784.00   0.55048460
7786.00   0.53139609
7788.00   0.53036815
7790.00   0.54875064
7792.00   0.55200410
7794.00   0.54395658
7796.00   0.54006869
7798.00   0.54583567
7800.00   0.55547959
7802.00   0.56085950
7804.00   0.56414878
7806.00   0.56927979
7808.00   0.57779545
7810.00   0.58172590
7812.00   0.57914764
7814.00   0.57414502
7816.00   0.57180792
7818.00   0.57152140
7820.00   0.56318820
7822.00   0.53965271
7824.00   0.53292418
#7826.00   0.56863493
#7828.00   0.57816011
#7830.00   0.49263209
#7832.00   0.33900180
#7834.00   0.26343700
#7836.00   0.18091492
#7838.00   0.20611267
#7840.00   0.37828436
#7842.00   0.53165323
#7844.00   0.59290493
#7846.00   0.60954088
#7848.00   0.61328590
#7850.00   0.56895816
7852.00   0.55769098
7854.00   0.56220305
7856.00   0.56390047
7858.00   0.55889964
7860.00   0.55153215
7862.00   0.54387695
7864.00   0.53139055
7866.00   0.53142929
7868.00   0.54473352
7870.00   0.55318165
7872.00   0.55540895
7874.00   0.55637026
7876.00   0.55964434
7878.00   0.56359524
7880.00   0.56874609
7882.00   0.57859576
7884.00   0.58165729
7886.00   0.57766324
7888.00   0.57167387
7890.00   0.56663007
7892.00   0.56101668
7894.00   0.55438340
7896.00   0.54397303
7898.00   0.53936952
7900.00   0.53970844
7902.00   0.54102290
7904.00   0.54150075
7906.00   0.54272586
7908.00   0.54780900
7910.00   0.56227243
7912.00   0.56130719
7914.00   0.54645121
7916.00   0.53443938
7918.00   0.52717066
7920.00   0.52207011
7922.00   0.51899010
7924.00   0.51823360
7926.00   0.51850319
7928.00   0.52191603
7930.00   0.52331978
7932.00   0.52280194
7934.00   0.52119684
7936.00   0.51878095
7938.00   0.51533896
7940.00   0.51187891
7942.00   0.50850284
7944.00   0.50382090
7946.00   0.49711093
7948.00   0.49080837
7950.00   0.48583728
7952.00   0.48176432
7954.00   0.48096722
7956.00   0.48450208
7958.00   0.48603731
7960.00   0.48952150
7962.00   0.48893541
7964.00   0.48035327
7966.00   0.46852118
7968.00   0.46427807
7970.00   0.46748853
7972.00   0.46186674
7974.00   0.45178130
7976.00   0.43893471
7978.00   0.42002508
7980.00   0.40144920
7982.00   0.39415300
7984.00   0.39633352
7986.00   0.39035067
7988.00   0.38212669
7990.00   0.37080714
7992.00   0.35450915
7994.00   0.33777526
7996.00   0.32379702
7998.00   0.31079325
8000.00   0.30340487
8002.00   0.30139905
8004.00   0.30045539
8006.00   0.30360055
8008.00   0.30551642
8010.00   0.30312073
8012.00   0.29856658
8014.00   0.29593179
8016.00   0.29347786
8018.00   0.29210502
8020.00   0.29402992
8022.00   0.29239950
8024.00   0.28456628
8026.00   0.27400681
8028.00   0.26586720
8030.00   0.25661814
8032.00   0.25314561
8034.00   0.25580004
8036.00   0.25727108
8038.00   0.25849065
8040.00   0.25826663
8042.00   0.25351778
8044.00   0.24451898
8046.00   0.23964706
8048.00   0.23558113
8050.00   0.23418006
8052.00   0.23757270
8054.00   0.24002561
8056.00   0.23705560
8058.00   0.23087125
8060.00   0.22663613
8062.00   0.22253416
8064.00   0.21868151
8066.00   0.21523392
8068.00   0.21171004
8070.00   0.20755081
8072.00   0.20336026
8074.00   0.20116787
8076.00   0.20062901
8078.00   0.20026258
8080.00   0.19992529
8082.00   0.20127203
8084.00   0.20610474
8086.00   0.21130244
8088.00   0.21108468
8090.00   0.20633195
8092.00   0.20456755
8094.00   0.20282874
8096.00   0.20292324
8098.00   0.20584837
8100.00   0.20911171
8102.00   0.21076202
8104.00   0.21216002
8106.00   0.20830394
8108.00   0.19626570
8110.00   0.19057900
8112.00   0.19055174
8114.00   0.19131060
8116.00   0.19049813
8118.00   0.18940143
8120.00   0.18812278
8122.00   0.18616109
8124.00   0.18506461
8126.00   0.18332644
8128.00   0.18388428
8130.00   0.18966824
8132.00   0.19698110
8134.00   0.19588104
8136.00   0.18623587
8138.00   0.18363433
8140.00   0.18578355
8142.00   0.18565820
8144.00   0.18169484
8146.00   0.17693962
8148.00   0.17471926
8150.00   0.17371039
8152.00   0.17352457
8154.00   0.17629535
8156.00   0.17587781
8158.00   0.17200868
8160.00   0.16692051
8162.00   0.16124621
8164.00   0.15418598
8166.00   0.15407391
8168.00   0.16149424
8170.00   0.16551843
8172.00   0.16798060
8174.00   0.17009394
8176.00   0.17276101
8178.00   0.17524058
8180.00   0.17434813
8182.00   0.16902804
8184.00   0.16671313
8186.00   0.16471915
8188.00   0.16451313
8190.00   0.16771173
8192.00   0.17191035
8194.00   0.17170583
8196.00   0.16807608
8198.00   0.16602202
8200.00   0.16467495
8202.00   0.16206051
8204.00   0.15728807
8206.00   0.15234083
8208.00   0.14910573
8210.00   0.14605060
8212.00   0.14852300
8214.00   0.15939729
8216.00   0.16434397
8218.00   0.16352332
8220.00   0.16158509
8222.00   0.16100693
8224.00   0.16050853
8226.00   0.16150992
8228.00   0.16445315
8230.00   0.16629757
8232.00   0.16890389
8234.00   0.16930850
8236.00   0.16502282
8238.00   0.15844409
8240.00   0.15685847
8242.00   0.15788120
8244.00   0.16045059
8246.00   0.16860506
8248.00   0.17188218
8250.00   0.16693066
8252.00   0.15882766
8254.00   0.15399396
8256.00   0.14794225
8258.00   0.15030731
8260.00   0.16488811
8262.00   0.17128889
8264.00   0.16816969
8266.00   0.16178516
8268.00   0.15570036
8270.00   0.14709154
8272.00   0.14795509
8274.00   0.15946750
8276.00   0.16540480
8278.00   0.16676924
8280.00   0.16817857
8282.00   0.17235406
8284.00   0.17777522
8286.00   0.18086563
8288.00   0.17980599
8290.00   0.18479483
8292.00   0.19838275
8294.00   0.20662071
8296.00   0.20345244
8298.00   0.19479065
8300.00   0.19041887
8302.00   0.18415934
8304.00   0.18577152
8306.00   0.19672519
8308.00   0.20432650
8310.00   0.20690118
8312.00   0.20750588
8314.00   0.20802628
8316.00   0.20678724
8318.00   0.20904070
8320.00   0.21603267
8322.00   0.21887991
8324.00   0.21699195
8326.00   0.21390955
8328.00   0.21155542
8330.00   0.20863365
8332.00   0.21094351
8334.00   0.21983847
8336.00   0.22472037
8338.00   0.22783279
8340.00   0.22903191
8342.00   0.22715563
8344.00   0.22319596
8346.00   0.22271502
8348.00   0.22371927
8350.00   0.22621743
8352.00   0.23286414
8354.00   0.23638774
8356.00   0.23330699
8358.00   0.22804047
8360.00   0.22859505
8362.00   0.23245545
8364.00   0.23708266
8366.00   0.24620588
8368.00   0.25119105
8370.00   0.24936053
8372.00   0.24670242
8374.00   0.25008917
8376.00   0.25702274
8378.00   0.26428175
8380.00   0.27635548
8382.00   0.28255644
8384.00   0.28188756
8386.00   0.28024659
8388.00   0.28107956
8390.00   0.28257409
8392.00   0.28791988
8394.00   0.29944041
8396.00   0.30600241
8398.00   0.30928525
8400.00   0.31164074
8402.00   0.31386611
8404.00   0.31544590
8406.00   0.31628504
8408.00   0.31551728
8410.00   0.31632692
8412.00   0.31847158
8414.00   0.31998014
8416.00   0.31982866
8418.00   0.31961146
8420.00   0.32196096
8422.00   0.32579401
8424.00   0.33127788
8426.00   0.34284732
8428.00   0.34711924
8430.00   0.34096625
8432.00   0.33303368
8434.00   0.33103302
8436.00   0.33099553
8438.00   0.33776420
8440.00   0.35404742
8442.00   0.36629799
8444.00   0.37937868
8446.00   0.38718000
8448.00   0.38317311
8450.00   0.37096259
8452.00   0.36792496
8454.00   0.36718902
8456.00   0.37142488
8458.00   0.38489598
8460.00   0.39444530
8462.00   0.39505380
8464.00   0.39104351
8466.00   0.38741043
8468.00   0.37802723
8470.00   0.37926093
8472.00   0.39178810
8474.00   0.39956167
8476.00   0.39881581
8478.00   0.39621031
8480.00   0.39940900
8482.00   0.40597546
8484.00   0.41184404
8486.00   0.42026183
8488.00   0.42528063
8490.00   0.42549083
8492.00   0.42541403
8494.00   0.42897639
8496.00   0.43450803
8498.00   0.43978044
8500.00   0.44688848
8502.00   0.45151350
8504.00   0.45343384
8506.00   0.45537248
8508.00   0.45980528
8510.00   0.46494403
8512.00   0.46309209
8514.00   0.45066619
8516.00   0.44891015
8518.00   0.45470342
8520.00   0.46032426
8522.00   0.46499473
8524.00   0.46870407
8526.00   0.46730068
8528.00   0.45975474
8530.00   0.45723173
8532.00   0.45620012
8534.00   0.45698899
8536.00   0.46101302
8538.00   0.46543282
8540.00   0.46550193
8542.00   0.46129736
8544.00   0.46610332
8546.00   0.48307785
8548.00   0.48925248
8550.00   0.48228392
8552.00   0.47488239
8554.00   0.47658959
8556.00   0.48305035
8558.00   0.48525122
8560.00   0.48723924
8562.00   0.48584563
8564.00   0.47985202
8566.00   0.47424921
8568.00   0.47141802
8570.00   0.46966112
8572.00   0.46662354
8574.00   0.46247265
8576.00   0.45961159
8578.00   0.45589972
8580.00   0.45531705
8582.00   0.45969194
8584.00   0.46632445
8586.00   0.47094709
8588.00   0.47602558
8590.00   0.47785819
8592.00   0.47651434
8594.00   0.47520748
8596.00   0.47301319
8598.00   0.47145352
8600.00   0.47281256
8602.00   0.47630039
8604.00   0.47998422
8606.00   0.48539764
8608.00   0.48971283
8610.00   0.49451092
8612.00   0.49712393
8614.00   0.49499479
8616.00   0.48946267
8618.00   0.48632485
8620.00   0.48306656
8622.00   0.48133656
8624.00   0.48248732
8626.00   0.48184276
8628.00   0.47686350
8630.00   0.47000897
8632.00   0.46652073
8634.00   0.46417162
8636.00   0.46398512
8638.00   0.46627155
8640.00   0.46927127
8642.00   0.47312069
8644.00   0.47749931
8646.00   0.48134345
8648.00   0.48486203
8650.00   0.48929635
8652.00   0.49447164
8654.00   0.49973065
8656.00   0.50625819
8658.00   0.51157981
8660.00   0.51327312
8662.00   0.51245910
8664.00   0.50914228
8666.00   0.50186419
8668.00   0.49527356
8670.00   0.48620892
8672.00   0.48027027
8674.00   0.48170897
8676.00   0.48780793
8678.00   0.49041972
8680.00   0.49338561
8682.00   0.49352425
8684.00   0.49006081
8686.00   0.48747376
8688.00   0.48720670
8690.00   0.48782378
8692.00   0.48751074
8694.00   0.48509574
8696.00   0.48834193
8698.00   0.49860245
8700.00   0.50506383
8702.00   0.50661469
8704.00   0.50583422
8706.00   0.50432402
8708.00   0.50094759
8710.00   0.49871582
8712.00   0.49624470
8714.00   0.49481967
8716.00   0.49419400
8718.00   0.49455029
8720.00   0.49668247
8722.00   0.50043923
8724.00   0.50063413
8726.00   0.49537921
8728.00   0.49649853
8730.00   0.50364953
8732.00   0.51098680
8734.00   0.51640117
8736.00   0.52109885
8738.00   0.52405465
8740.00   0.52619863
8742.00   0.52561873
8744.00   0.52157366
8746.00   0.51768762
8748.00   0.51447380
8750.00   0.51149940
8752.00   0.50909078
8754.00   0.50664586
8756.00   0.50636923
8758.00   0.51036435
8760.00   0.51038116
8762.00   0.50331104
8764.00   0.49658915
8766.00   0.49931023
8768.00   0.50948638
8770.00   0.51056933
8772.00   0.50680107
8774.00   0.50180990
8776.00   0.49348268
8778.00   0.48547223
8780.00   0.47943017
8782.00   0.47445276
8784.00   0.47744051
8786.00   0.49118733
8788.00   0.49864408
8790.00   0.50427490
8792.00   0.50742859
8794.00   0.50618315
8796.00   0.50282437
8798.00   0.50552619
8800.00   0.51656580
8802.00   0.51621777
8804.00   0.50645781
8806.00   0.49845344
8808.00   0.49371070
8810.00   0.49008363
8812.00   0.48640475
8814.00   0.48213869
8816.00   0.48266673
8818.00   0.48693743
8820.00   0.49301356
8822.00   0.50731456
8824.00   0.51617843
8826.00   0.50186574
8828.00   0.46864483
8830.00   0.46042043
8832.00   0.46914014
8834.00   0.47403488
8836.00   0.48156339
8838.00   0.48550665
8840.00   0.47867215
8842.00   0.46575868
8844.00   0.46910253
8846.00   0.49300861
8848.00   0.49675763
8850.00   0.48303336
8852.00   0.47437775
8854.00   0.47901225
8856.00   0.48867777
8858.00   0.49157786
8860.00   0.48890629
8862.00   0.49410692
8864.00   0.51034504
8866.00   0.51662618
8868.00   0.50910562
8870.00   0.49569643
8872.00   0.48369801
8874.00   0.46859095
8876.00   0.45954883
8878.00   0.45532155
8880.00   0.45074126
8882.00   0.44827381
8884.00   0.44374973
8886.00   0.43212980
8888.00   0.41521347
8890.00   0.40490159
8892.00   0.39514971
8894.00   0.39247963
8896.00   0.39859179
8898.00   0.40555924
8900.00   0.41155276
8902.00   0.41700575
8904.00   0.41288316
8906.00   0.39507902
8908.00   0.38855088
8910.00   0.38618085
8912.00   0.38738877
8914.00   0.39610270
8916.00   0.40578160
8918.00   0.40029261
8920.00   0.38234377
8922.00   0.36832818
8924.00   0.34513712
8926.00   0.33649513
8928.00   0.34799430
8930.00   0.36574239
8932.00   0.37654126
8934.00   0.38755172
8936.00   0.38774586
8938.00   0.37537232
8940.00   0.36708474
8942.00   0.36033872
8944.00   0.35505229
8946.00   0.35105968
8948.00   0.34834716
8950.00   0.35334870
8952.00   0.37139657
8954.00   0.37772658
8956.00   0.37908354
8958.00   0.37352303
8960.00   0.35608432
8962.00   0.33247587
8964.00   0.32381761
8966.00   0.32600331
8968.00   0.32553208
8970.00   0.32853386
8972.00   0.32910007
8974.00   0.32432127
8976.00   0.31901506
8978.00   0.32112259
8980.00   0.32956102
8982.00   0.33335349
8984.00   0.33679888
8986.00   0.33733064
8988.00   0.33276632
8990.00   0.32830364
8992.00   0.32941994
8994.00   0.33402228
8996.00   0.33793637
8998.00   0.34328422
9000.00   0.34771800
9002.00   0.35345450
9004.00   0.35611525
9006.00   0.35054895
9008.00   0.34000075
9010.00   0.34262964
9012.00   0.35937905
9014.00   0.36584136
9016.00   0.37019935
9018.00   0.36794382
9020.00   0.35258275
9022.00   0.33261916
9024.00   0.33200222
9026.00   0.34789449
9028.00   0.35538357
9030.00   0.36427465
9032.00   0.36809549
9034.00   0.36300474
9036.00   0.35641968
9038.00   0.35928363
9040.00   0.36909992
9042.00   0.37331849
9044.00   0.37706971
9046.00   0.37690258
9048.00   0.37123838
9050.00   0.36456913
9052.00   0.36022317
9054.00   0.35644698
9056.00   0.35602510
9058.00   0.36190459
9060.00   0.36157292
9062.00   0.35672811
9064.00   0.34976947
9066.00   0.33949119
9068.00   0.32742736
9070.00   0.32619849
9072.00   0.33794251
9074.00   0.34011710
9076.00   0.33710659
9078.00   0.33477852
9080.00   0.33428445
9082.00   0.33458212
9084.00   0.33580059
9086.00   0.33897847
9088.00   0.33928314
9090.00   0.33687595
9092.00   0.33565652
9094.00   0.33469543
9096.00   0.33556476
9098.00   0.34169623
9100.00   0.35320666
9102.00   0.35816345
9104.00   0.35684675
9106.00   0.36041257
9108.00   0.37029782
9110.00   0.37921306
9112.00   0.38278347
9114.00   0.38326800
9116.00   0.37822104
9118.00   0.36376825
9120.00   0.35532454
9122.00   0.34992847
9124.00   0.34576604
9126.00   0.34237012
9128.00   0.34001386
9130.00   0.33848095
9132.00   0.34060687
9134.00   0.33649933
9136.00   0.32509157
9138.00   0.31767061
9140.00   0.31552497
9142.00   0.31729165
9144.00   0.32412770
9146.00   0.33736253
9148.00   0.34797302
9150.00   0.36010835
9152.00   0.36979759
9154.00   0.37805915
9156.00   0.38336086
9158.00   0.38242725
9160.00   0.37526307
9162.00   0.37632525
9164.00   0.38560423
9166.00   0.38806349
9168.00   0.38407964
9170.00   0.37926969
9172.00   0.37638089
9174.00   0.37394896
9176.00   0.37263605
9178.00   0.37401995
9180.00   0.37209421
9182.00   0.36557901
9184.00   0.36209130
9186.00   0.36588225
9188.00   0.37239698
9190.00   0.37165031
9192.00   0.36464313
9194.00   0.36220101
9196.00   0.35988727
9198.00   0.36103591
9200.00   0.36759287
9202.00   0.37589991
9204.00   0.38122219
9206.00   0.38697103
9208.00   0.38463542
9210.00   0.36985853
9212.00   0.36415517
9214.00   0.36940956
9216.00   0.37604085
9218.00   0.37617555
9220.00   0.37292770
9222.00   0.37523547
9224.00   0.38067552
9226.00   0.38739350
9228.00   0.39818972
9230.00   0.40698221
9232.00   0.40958652
9234.00   0.40886766
9236.00   0.41256028
9238.00   0.42555043
9240.00   0.42206278
9242.00   0.39957666
9244.00   0.38506788
9246.00   0.38706073
9248.00   0.39612123
9250.00   0.40106091
9252.00   0.40983114
9254.00   0.40672377
9256.00   0.38863796
9258.00   0.37876830
9260.00   0.38090336
9262.00   0.38584536
9264.00   0.38465106
9266.00   0.38062003
9268.00   0.37758210
9270.00   0.37540105
9272.00   0.37066483
9274.00   0.36145103
9276.00   0.35338840
9278.00   0.35099524
9280.00   0.35216135
9282.00   0.35236949
9284.00   0.35387456
9286.00   0.35436374
9288.00   0.35176235
9290.00   0.35283077
9292.00   0.36256403
9294.00   0.37648812
9296.00   0.38131985
9298.00   0.37605277
9300.00   0.38141459
9302.00   0.39655483
9304.00   0.40661144
9306.00   0.41091543
9308.00   0.40923497
9310.00   0.39457613
9312.00   0.36142096
9314.00   0.35043335
9316.00   0.35320184
9318.00   0.35699651
9320.00   0.36659846
9322.00   0.37372673
9324.00   0.36520833
9326.00   0.34351936
9328.00   0.34007999
9330.00   0.34871313
9332.00   0.35635161
9334.00   0.36939543
9336.00   0.37780741
9338.00   0.37205926
9340.00   0.35737354
9342.00   0.35565880
9344.00   0.36133024
9346.00   0.36757132
9348.00   0.38455433
9350.00   0.38989964
9352.00   0.36874625
9354.00   0.33707172
9356.00   0.33403623
9358.00   0.35368100
9360.00   0.36244443
9362.00   0.37367779
9364.00   0.37815428
9366.00   0.37314412
9368.00   0.36352593
9370.00   0.35652006
9372.00   0.35312542
9374.00   0.33083665
9376.00   0.27835178
9378.00   0.25162816
9380.00   0.25312066
9382.00   0.26439962
9384.00   0.27264136
9386.00   0.28372729
9388.00   0.29913610
9390.00   0.32726318
9392.00   0.33965749
9394.00   0.33775684
9396.00   0.33223659
9398.00   0.32553113
9400.00   0.31696281
9402.00   0.32115367
9404.00   0.34498852
9406.00   0.34785607
9408.00   0.33271658
9410.00   0.32249400
9412.00   0.32378560
9414.00   0.33001122
9416.00   0.33492205
9418.00   0.34101400
9420.00   0.34790322
9422.00   0.36175054
9424.00   0.36493611
9426.00   0.34284550
9428.00   0.32552260
9430.00   0.35793880
9432.00   0.43491319
9434.00   0.46116883
9436.00   0.47006038
9438.00   0.45332187
9440.00   0.38650307
9442.00   0.32891461
9444.00   0.33456081
9446.00   0.37987107
9448.00   0.38622767
9450.00   0.37430468
9452.00   0.36398578
9454.00   0.34506199
9456.00   0.33218750
9458.00   0.33325279
9460.00   0.34244445
9462.00   0.34980923
9464.00   0.35763323
9466.00   0.37057644
9468.00   0.39261097
9470.00   0.40882227
9472.00   0.42133924
9474.00   0.42494333
9476.00   0.40068620
9478.00   0.34244183
9480.00   0.31522629
9482.00   0.29731545
9484.00   0.29320681
9486.00   0.30856636
9488.00   0.33087265
9490.00   0.34729102
9492.00   0.36505127
9494.00   0.37071094
9496.00   0.36112654
9498.00   0.35998976
9500.00   0.36779827
9502.00   0.37386367
9504.00   0.37267822
9506.00   0.36711922
9508.00   0.35399997
9510.00   0.32447362
9512.00   0.31138039
9514.00   0.31153160
9516.00   0.31147373
9518.00   0.30434522
9520.00   0.29672161
9522.00   0.30254242
9524.00   0.32087019
9526.00   0.33560205
9528.00   0.35973781
9530.00   0.37006021
9532.00   0.35661182
9534.00   0.33684987
9536.00   0.33609596
9538.00   0.34596497
9540.00   0.35569713
9542.00   0.37442622
9544.00   0.38479853
9546.00   0.38924545
9548.00   0.38612700
9550.00   0.36995128
9552.00   0.34112060
9554.00   0.32591623
9556.00   0.31450379
9558.00   0.31031275
9560.00   0.31878331
9562.00   0.32473770
9564.00   0.31828022
9566.00   0.30551562
9568.00   0.30017784
9570.00   0.29688656
9572.00   0.29734129
9574.00   0.30242598
9576.00   0.30847532
9578.00   0.31686553
9580.00   0.32489067
9582.00   0.32293138
9584.00   0.31496882
9586.00   0.29976371
9588.00   0.26602864
9590.00   0.24764255
9592.00   0.24951228
9594.00   0.26077271
9596.00   0.27409193
9598.00   0.29821560
9600.00   0.29618472
9602.00   0.26877874
9604.00   0.25010592
9606.00   0.23123592
9608.00   0.22251648
9610.00   0.23838340
9612.00   0.27355832
9614.00   0.28976750
9616.00   0.29880932
9618.00   0.30455628
9620.00   0.30250147
9622.00   0.30198044
9624.00   0.30982047
9626.00   0.32051256
9628.00   0.31766713
9630.00   0.29971495
9632.00   0.29237854
9634.00   0.28883737
9636.00   0.28692421
9638.00   0.28610426
9640.00   0.28701708
9642.00   0.29043910
9644.00   0.29706392
9646.00   0.30224380
9648.00   0.31036150
9650.00   0.31270686
9652.00   0.30674675
9654.00   0.29876271
9656.00   0.29462793
9658.00   0.29090881
9660.00   0.29463166
9662.00   0.31045431
9664.00   0.31662384
9666.00   0.31270480
9668.00   0.30808181
9670.00   0.30903304
9672.00   0.31237653
9674.00   0.31084171
9676.00   0.30450991
9678.00   0.30139121
9680.00   0.30062005
9682.00   0.29926640
9684.00   0.29567930
9686.00   0.29143256
9688.00   0.29010943
9690.00   0.28802884
9692.00   0.29391235
9694.00   0.31229487
9696.00   0.32291111
9698.00   0.32096931
9700.00   0.31409395
9702.00   0.31028998
9704.00   0.30441785
9706.00   0.30654606
9708.00   0.31581882
9710.00   0.32526246
9712.00   0.33873522
9714.00   0.34917748
9716.00   0.34883448
9718.00   0.34115371
9720.00   0.32735428
9722.00   0.29722637
9724.00   0.28195119
9726.00   0.27508602
9728.00   0.27794862
9730.00   0.29822212
9732.00   0.33032456
9734.00   0.33255121
9736.00   0.29717243
9738.00   0.29917160
9740.00   0.33887464
9742.00   0.36060500
9744.00   0.33921656
9746.00   0.30218869
9748.00   0.29989055
9750.00   0.32508406
9752.00   0.32914028
9754.00   0.32423094
9756.00   0.31795278
9758.00   0.30915448
9760.00   0.29992685
9762.00   0.29530653
9764.00   0.29436740
9766.00   0.28963038
9768.00   0.27884436
9770.00   0.27625269
9772.00   0.28474131
9774.00   0.29370597
9776.00   0.29416680
9778.00   0.28990364
9780.00   0.29116735
9782.00   0.29598847
9784.00   0.29953012
9786.00   0.30894139
9788.00   0.30869696
9790.00   0.28290403
9792.00   0.24497545
9794.00   0.24783769
9796.00   0.29587418
9798.00   0.30952516
9800.00   0.30601233
9802.00   0.30224824
9804.00   0.30085996
9806.00   0.29971835
9808.00   0.30075052
9810.00   0.30352908
9812.00   0.30656990
9814.00   0.31224692
9816.00   0.31491151
9818.00   0.31594986
9820.00   0.31306180
9822.00   0.30038446
9824.00   0.27655447
9826.00   0.27217668
9828.00   0.28439128
9830.00   0.29107112
9832.00   0.29470965
9834.00   0.29750726
9836.00   0.29987463
9838.00   0.30158165
9840.00   0.30397376
9842.00   0.31080189
9844.00   0.30824435
9846.00   0.29403421
9848.00   0.28285885
9850.00   0.28128591
9852.00   0.28403273
9854.00   0.28297693
9856.00   0.27841017
9858.00   0.28021562
9860.00   0.28494877
9862.00   0.29399207
9864.00   0.31279686
9866.00   0.33169276
9868.00   0.33265492
9870.00   0.32287553
9872.00   0.30275369
9874.00   0.25327557
9876.00   0.23117629
9878.00   0.24604864
9880.00   0.26683164
9882.00   0.26360372
9884.00   0.24635640
9886.00   0.25292638
9888.00   0.27915281
9890.00   0.29853544
9892.00   0.32123154
9894.00   0.33427665
9896.00   0.32779047
9898.00   0.30745885
9900.00   0.28615999
9902.00   0.24913767
9904.00   0.23042576
9906.00   0.22653468
9908.00   0.22250900
9910.00   0.21163239
9912.00   0.20092238
9914.00   0.20331621
9916.00   0.21712758
9918.00   0.22952530
9920.00   0.24829014
9922.00   0.26222080
9924.00   0.26905456
9926.00   0.27318880
9928.00   0.27917889
9930.00   0.28510582
9932.00   0.29109392
9934.00   0.29977223
9936.00   0.30298290
9938.00   0.30078468
9940.00   0.29520631
9942.00   0.28751901
9944.00   0.27716163
9946.00   0.26339617
9948.00   0.23563187
9950.00   0.22877212
9952.00   0.24193339
9954.00   0.25869483
9956.00   0.27557948
9958.00   0.29328278
9960.00   0.29095173
9962.00   0.25660589
9964.00   0.25601202
9966.00   0.28339833
9968.00   0.30238649
9970.00   0.30638203
9972.00   0.30091855
9974.00   0.28251752
9976.00   0.24352363
9978.00   0.22388655
9980.00   0.20974396
9982.00   0.20567420
9984.00   0.21805312
9986.00   0.23349978
9988.00   0.23410882
9990.00   0.22510047
9992.00   0.22522573
9994.00   0.22837360
9996.00   0.23464772
9998.00   0.24989162
10000.00   0.26031640
10002.00   0.25138590
10004.00   0.22950889
10006.00   0.23368107
10008.00   0.27010939
10010.00   0.27471963
10012.00   0.25502428
10014.00   0.23101285
10016.00   0.20391598
10018.00   0.17601307
10020.00   0.17674337
10022.00   0.21407948
10024.00   0.22058660
10026.00   0.20907520
10028.00   0.20003478
10030.00   0.19868408
10032.00   0.19748446
10034.00   0.18624315
10036.00   0.16155437
10038.00   0.16107145
10040.00   0.17870738
10042.00   0.19743372
10044.00   0.22900732
10046.00   0.25098684
10048.00   0.23207115
10050.00   0.17973317
10052.00   0.15890892
10054.00   0.14920013
10056.00   0.14740409
10058.00   0.16178860
10060.00   0.17359731
10062.00   0.17105477
10064.00   0.16055706
10066.00   0.14700334
10068.00   0.11851881
10070.00   0.10881358
10072.00   0.11225595
10074.00   0.12034298
10076.00   0.13287769
10078.00   0.14860377
10080.00   0.15815821
10082.00   0.16918537
10084.00   0.16557153
10086.00   0.14241871
10088.00   0.12776713
10090.00   0.12183765
10092.00   0.12451131
10094.00   0.14539902
10096.00   0.19202182
10098.00   0.19701707
10100.00   0.16904762
10102.00   0.14693287
10104.00   0.11977084
10106.00   0.10241081
10108.00   0.11625321
10110.00   0.15481307
10112.00   0.16463107
10114.00   0.15403078
10116.00   0.15390074
10118.00   0.16172349
10120.00   0.16783734
10122.00   0.17091995
10124.00   0.17078279
10126.00   0.15055127
10128.00   0.09544198
10130.00   0.07556396
10132.00   0.07842770
10134.00   0.08362822
10136.00   0.08327571
10138.00   0.08680604
10140.00   0.11093025
10142.00   0.16470262
10144.00   0.18083534
10146.00   0.17731057
10148.00   0.16196626
10150.00   0.12259254
10152.00   0.08329114
10154.00   0.08038420
10156.00   0.10416092
10158.00   0.11288996
10160.00   0.11339293
10162.00   0.12630241
10164.00   0.16083238
10166.00   0.18859862
10168.00   0.18411112
10170.00   0.15859762
10172.00   0.15904447
10174.00   0.18365070
10176.00   0.18589911
10178.00   0.17121977
10180.00   0.15349500
10182.00   0.12882446
10184.00   0.10432711
10186.00   0.12809515
10188.00   0.22529985
10190.00   0.24496751
10192.00   0.21683823
10194.00   0.18325233
10196.00   0.14087521
10198.00   0.09947905
10200.00   0.09479960
10202.00   0.12029669
10204.00   0.13833065
10206.00   0.17318960
10208.00   0.18744415
10210.00   0.17081025
10212.00   0.15067515
10214.00   0.15309714
10216.00   0.16612542
10218.00   0.19268256
10220.00   0.26108688
10222.00   0.27912119
10224.00   0.24336104
10226.00   0.20054922
10228.00   0.17263852
10230.00   0.14821315
10232.00   0.15327442
10234.00   0.21528426
10236.00   0.21336864
10238.00   0.14114533
10240.00   0.09802110
10242.00   0.13241424
10244.00   0.19709300
10246.00   0.19928142
10248.00   0.15097216
10250.00   0.13976182
10252.00   0.14576189
10254.00   0.15031290
10256.00   0.15310682
10258.00   0.15424354
10260.00   0.14852445
10262.00   0.13473640
10264.00   0.13185814
10266.00   0.12646593
10268.00   0.14106047
10270.00   0.19209996
10272.00   0.23775077
10274.00   0.23249662
10276.00   0.19100443
10278.00   0.20160052
10280.00   0.27207795
10282.00   0.28296575
10284.00   0.23090847
10286.00   0.18413827
10288.00   0.18409760
10290.00   0.20414047
10292.00   0.18131699
10294.00   0.11934701
10296.00   0.08103685
10298.00   0.03561262
10300.00   0.01898370
10302.00   0.05308310
10304.00   0.10979854
10306.00   0.13007753
10308.00   0.12226616
10310.00   0.14736223
10312.00   0.22753333
10314.00   0.24372472
10316.00   0.14940946
10318.00   0.04334067
10320.00   0.05340290
10322.00   0.14880976
10324.00   0.16845773
10326.00   0.14098224
10328.00   0.13812445
10330.00   0.17156674
10332.00   0.19159544
10334.00   0.14367738
10336.00   0.04782920
10338.00   0.08102327
10340.00   0.28307691
10342.00   0.32864362
10344.00   0.23383233
10346.00   0.14716662
10348.00   0.11885038
10350.00   0.12037212
10352.00   0.18348454
10354.00   0.38481674
10356.00   0.41793141
10358.00   0.30934674
10360.00   0.23817059
10362.00   0.24524495
10364.00   0.28006572
10366.00   0.29816103
10368.00   0.32238412
10370.00   0.32774049
10372.00   0.30824640
10374.00   0.30475795
10376.00   0.32492653
10378.00   0.34729603
10380.00   0.35453227
10382.00   0.35806510
10384.00   0.32530999
10386.00   0.23429497
10388.00   0.18749459
10390.00   0.17110634
10392.00   0.17731957
10394.00   0.21625087
10396.00   0.28263092
10398.00   0.29021332
10400.00   0.24379608
10402.00   0.22640893
10404.00   0.20935313
10406.00   0.21321204
10408.00   0.25813988
10410.00   0.32172823
10412.00   0.33896476
10414.00   0.31933299
10416.00   0.31857848
10418.00   0.33106861
10420.00   0.32512987
10422.00   0.29176119
10424.00   0.24629486
10426.00   0.20283753
10428.00   0.13757114
10430.00   0.14954790
10432.00   0.26023906
10434.00   0.31009772
10436.00   0.28787681
10438.00   0.25255272
10440.00   0.24685039
10442.00   0.25054461
10444.00   0.26928136
10446.00   0.32331732
10448.00   0.34203437
10450.00   0.32551509
10452.00   0.30773914
10454.00   0.30884019
10456.00   0.31646323
10458.00   0.30392706
10460.00   0.26989147
10462.00   0.25052619
10464.00   0.22968595
10466.00   0.22412764
10468.00   0.25070319
10470.00   0.28679022
10472.00   0.27437490
10474.00   0.20237176
10476.00   0.20902933
10478.00   0.29682362
10480.00   0.33605140
10482.00   0.29557389
10484.00   0.24122570
10486.00   0.24812527
10488.00   0.29242688
10490.00   0.32248116
10492.00   0.37504396
10494.00   0.38800162
10496.00   0.35191324
10498.00   0.30703026
10500.00   0.27822354
10502.00   0.25188860
10504.00   0.26085091
10506.00   0.31767586
10508.00   0.34555903
10510.00   0.34610230
10512.00   0.35877708
10514.00   0.41722235
10516.00   0.49247506
10518.00   0.48086932
10520.00   0.36808893
10522.00   0.33174095
10524.00   0.33704901
10526.00   0.33490843
10528.00   0.31115761
10530.00   0.28367656
10532.00   0.27339709
10534.00   0.26796097
10536.00   0.28651044
10538.00   0.34221175
10540.00   0.37854102
10542.00   0.39458716
10544.00   0.39872149
10546.00   0.39020064
10548.00   0.36362329
10550.00   0.36601368
10552.00   0.39931569
10554.00   0.40943229
10556.00   0.40191859
10558.00   0.38423252
10560.00   0.35761482
10562.00   0.32132679
10564.00   0.28768882
10566.00   0.22018535
10568.00   0.22488759
10570.00   0.31285790
10572.00   0.38612661
10574.00   0.40324765
10576.00   0.39829531
10578.00   0.42027241
10580.00   0.46742955
10582.00   0.47879714
10584.00   0.46516392
10586.00   0.44775733
10588.00   0.42330801
10590.00   0.39891031
10592.00   0.39628017
10594.00   0.41876107
10596.00   0.40169156
10598.00   0.33986440
10600.00   0.31031269
10602.00   0.31096768
10604.00   0.33115971
10606.00   0.37809017
10608.00   0.45909238
10610.00   0.45414260
10612.00   0.34825981
10614.00   0.31580651
10616.00   0.34882957
10618.00   0.38549656
10620.00   0.39514309
10622.00   0.39502591
10624.00   0.39541364
10626.00   0.39984092
10628.00   0.38440391
10630.00   0.33821553
10632.00   0.30808944
10634.00   0.30515292
10636.00   0.32123527
10638.00   0.36197898
10640.00   0.45385882
10642.00   0.48042607
10644.00   0.46438423
10646.00   0.44254634
10648.00   0.40409023
10650.00   0.36936301
10652.00   0.38138905
10654.00   0.43654898
10656.00   0.44408828
10658.00   0.41257381
10660.00   0.40475249
10662.00   0.42398381
10664.00   0.44494611
10666.00   0.45076603
10668.00   0.44965214
10670.00   0.43994582
10672.00   0.41280180
10674.00   0.39859876
10676.00   0.38407713
10678.00   0.38624325
10680.00   0.41626933
10682.00   0.46606186
10684.00   0.51649719
10686.00   0.61763847
10688.00   0.62333125
10690.00   0.53805828
10692.00   0.46777943
10694.00   0.43175781
10696.00   0.41213602
10698.00   0.41331121
10700.00   0.45489484
10702.00   0.44013387
10704.00   0.36990878
10706.00   0.32974771
10708.00   0.33031660
10710.00   0.34123749
10712.00   0.33544904
10714.00   0.32304531
10716.00   0.31722263
10718.00   0.30947721
10720.00   0.31294715
10722.00   0.33296275
10724.00   0.35208270
10726.00   0.35763454
10728.00   0.35590991
10730.00   0.35706371
10732.00   0.35788941
10734.00   0.35742348
10736.00   0.35461175
10738.00   0.35282135
10740.00   0.35191339
10742.00   0.35274726
10744.00   0.36243114
10746.00   0.39029220
10748.00   0.39275920
10750.00   0.37549242
10752.00   0.35927346
10754.00   0.34559470
10756.00   0.33320087
10758.00   0.32557565
10760.00   0.32072985
10762.00   0.32168284
10764.00   0.34009343
10766.00   0.33810213
10768.00   0.30450234
10770.00   0.27040303
10772.00   0.26430541
10774.00   0.27327085
10776.00   0.29724321
10778.00   0.35789284
10780.00   0.38659161
10782.00   0.39493710
10784.00   0.38539153
10786.00   0.35124499
10788.00   0.29716602
10790.00   0.26628238
10792.00   0.22655167
10794.00   0.23412439
10796.00   0.29630670
10798.00   0.35340059
10800.00   0.39311597
10802.00   0.42226514
10804.00   0.42361024
10806.00   0.39102978
10808.00   0.37497932
10810.00   0.36547154
10812.00   0.34718499
10814.00   0.30661553
10816.00   0.26975864
10818.00   0.28001943
10820.00   0.33663306
10822.00   0.33463934
10824.00   0.27208218
10826.00   0.25720584
10828.00   0.30087945
10830.00   0.34988752
10832.00   0.36017498
10834.00   0.34945583
10836.00   0.37168598
10838.00   0.44203329
10840.00   0.45313680
10842.00   0.39914793
10844.00   0.35217598
10846.00   0.35351452
10848.00   0.37493584
10850.00   0.35589826
10852.00   0.29993215
10854.00   0.26857817
10856.00   0.24237424
10858.00   0.22595361
10860.00   0.21978252
