# File created by shivutils (I.Shivvers)
# Blotched regions marked with a #.
# wl(A)   flm    er(optional)
3450.00   0.52847475
3451.00   0.55745542
3452.00   0.60940605
3453.00   0.58804506
3454.00   0.53572094
3455.00   0.57236075
3456.00   0.55660200
3457.00   0.61240184
3458.00   0.59148651
3459.00   0.63626730
3460.00   0.56824452
3461.00   0.44690052
3462.00   0.52674484
3463.00   0.44350716
3464.00   0.47090036
3465.00   0.43748924
3466.00   0.49080867
3467.00   0.55223513
3468.00   0.49295628
3469.00   0.58210945
3470.00   0.61261541
3471.00   0.44178557
3472.00   0.45688966
3473.00   0.51645803
3474.00   0.48982912
3475.00   0.47928804
3476.00   0.40936539
3477.00   0.38162574
3478.00   0.46236628
3479.00   0.50483358
3480.00   0.47691640
3481.00   0.41925138
3482.00   0.62484407
3483.00   0.65744650
3484.00   0.48887965
3485.00   0.48218462
3486.00   0.49512285
3487.00   0.57110083
3488.00   0.57860714
3489.00   0.51769620
3490.00   0.56259900
3491.00   0.52065510
3492.00   0.50776094
3493.00   0.58947802
3494.00   0.60703921
3495.00   0.58211052
3496.00   0.60670424
3497.00   0.64012402
3498.00   0.65445173
3499.00   0.50748152
3500.00   0.51150763
3501.00   0.58454037
3502.00   0.60805887
3503.00   0.54147625
3504.00   0.62725085
3505.00   0.70060205
3506.00   0.57629436
3507.00   0.40313208
3508.00   0.44975588
3509.00   0.57407886
3510.00   0.58266324
3511.00   0.59310675
3512.00   0.58195829
3513.00   0.55500549
3514.00   0.55576909
3515.00   0.57174534
3516.00   0.58420676
3517.00   0.56225264
3518.00   0.46831554
3519.00   0.61574626
3520.00   0.56614858
3521.00   0.49196014
3522.00   0.58593243
3523.00   0.52096683
3524.00   0.60138935
3525.00   0.65435231
3526.00   0.56285536
3527.00   0.40636396
3528.00   0.41613698
3529.00   0.61332738
3530.00   0.53048438
3531.00   0.50998825
3532.00   0.64908981
3533.00   0.60485077
3534.00   0.50277388
3535.00   0.51583529
3536.00   0.55440021
3537.00   0.55634958
3538.00   0.55001593
3539.00   0.46568257
3540.00   0.38502318
3541.00   0.48810530
3542.00   0.55777329
3543.00   0.55723256
3544.00   0.61308050
3545.00   0.55961555
3546.00   0.49268258
3547.00   0.46221599
3548.00   0.54638141
3549.00   0.51499760
3550.00   0.48104516
3551.00   0.50135660
3552.00   0.39413789
3553.00   0.42282283
3554.00   0.50894290
3555.00   0.59394932
3556.00   0.64420682
3557.00   0.55562460
3558.00   0.51805627
3559.00   0.48393705
3560.00   0.48959491
3561.00   0.60620648
3562.00   0.47779876
3563.00   0.54230541
3564.00   0.55780762
3565.00   0.54772246
3566.00   0.42227250
3567.00   0.47801128
3568.00   0.46874103
3569.00   0.56075943
3570.00   0.53149676
3571.00   0.46510297
3572.00   0.55550867
3573.00   0.57767874
3574.00   0.52525723
3575.00   0.52273726
3576.00   0.48477623
3577.00   0.64818096
3578.00   0.56593287
3579.00   0.51237339
3580.00   0.50591022
3581.00   0.51094908
3582.00   0.57127994
3583.00   0.53429359
3584.00   0.44210455
3585.00   0.53585577
3586.00   0.53911412
3587.00   0.48513782
3588.00   0.57281768
3589.00   0.60244566
3590.00   0.49784020
3591.00   0.46440288
3592.00   0.52561492
3593.00   0.50368661
3594.00   0.53525090
3595.00   0.55711180
3596.00   0.60620338
3597.00   0.61793804
3598.00   0.56702286
3599.00   0.52876407
3600.00   0.52185613
3601.00   0.55353826
3602.00   0.58548975
3603.00   0.61338234
3604.00   0.64358151
3605.00   0.58870035
3606.00   0.54814857
3607.00   0.54956198
3608.00   0.57952589
3609.00   0.64117998
3610.00   0.60078192
3611.00   0.63938975
3612.00   0.62081164
3613.00   0.62589872
3614.00   0.62194455
3615.00   0.58939314
3616.00   0.53352904
3617.00   0.57113117
3618.00   0.60233802
3619.00   0.62480360
3620.00   0.65753871
3621.00   0.72160906
3622.00   0.57145000
3623.00   0.65907902
3624.00   0.66262990
3625.00   0.57746851
3626.00   0.54684210
3627.00   0.67435426
3628.00   0.70709860
3629.00   0.69979441
3630.00   0.68793875
3631.00   0.59713352
3632.00   0.60350490
3633.00   0.68525040
3634.00   0.58977920
3635.00   0.58902246
3636.00   0.63772959
3637.00   0.55184180
3638.00   0.49920583
3639.00   0.55102485
3640.00   0.58618969
3641.00   0.61300218
3642.00   0.63631064
3643.00   0.59057522
3644.00   0.60124433
3645.00   0.54271811
3646.00   0.50785464
3647.00   0.56139588
3648.00   0.62122434
3649.00   0.68686837
3650.00   0.69866616
3651.00   0.68894523
3652.00   0.63823539
3653.00   0.65367597
3654.00   0.60112721
3655.00   0.60765094
3656.00   0.62049681
3657.00   0.60000360
3658.00   0.56375891
3659.00   0.56162423
3660.00   0.58382165
3661.00   0.56240875
3662.00   0.45753446
3663.00   0.62998188
3664.00   0.58549112
3665.00   0.53925329
3666.00   0.52131027
3667.00   0.57191044
3668.00   0.51132107
3669.00   0.47208199
3670.00   0.52283454
3671.00   0.55115885
3672.00   0.55125666
3673.00   0.60844475
3674.00   0.63720560
3675.00   0.58363396
3676.00   0.53809673
3677.00   0.53393596
3678.00   0.59135598
3679.00   0.61717027
3680.00   0.54596090
3681.00   0.53402853
3682.00   0.56333089
3683.00   0.59988362
3684.00   0.55312032
3685.00   0.54672438
3686.00   0.62338513
3687.00   0.58717412
3688.00   0.51378882
3689.00   0.53357106
3690.00   0.57115632
3691.00   0.59354556
3692.00   0.56133491
3693.00   0.55535376
3694.00   0.60795963
3695.00   0.57095140
3696.00   0.56106508
3697.00   0.54416239
3698.00   0.59114730
3699.00   0.60304838
3700.00   0.60082638
3701.00   0.58329886
3702.00   0.54837185
3703.00   0.53889704
3704.00   0.51969928
3705.00   0.54103494
3706.00   0.52658504
3707.00   0.53109378
3708.00   0.58504516
3709.00   0.56338769
3710.00   0.62126648
3711.00   0.65014297
3712.00   0.61480987
3713.00   0.55727810
3714.00   0.53935915
3715.00   0.60732871
3716.00   0.57065570
3717.00   0.55698985
3718.00   0.50341690
3719.00   0.56581098
3720.00   0.53985274
3721.00   0.56810194
3722.00   0.54347330
3723.00   0.60993505
3724.00   0.61550778
3725.00   0.55649930
3726.00   0.56927139
3727.00   0.53791112
3728.00   0.53096122
3729.00   0.61398315
3730.00   0.62475657
3731.00   0.58709514
3732.00   0.62734038
3733.00   0.63446665
3734.00   0.62127441
3735.00   0.65561926
3736.00   0.62782609
3737.00   0.58288586
3738.00   0.60974091
3739.00   0.68037176
3740.00   0.70603305
3741.00   0.67227840
3742.00   0.67050904
3743.00   0.66024190
3744.00   0.63108528
3745.00   0.62600493
3746.00   0.62101609
3747.00   0.61643142
3748.00   0.59179276
3749.00   0.60759783
3750.00   0.63618940
3751.00   0.66682971
3752.00   0.63032860
3753.00   0.58914763
3754.00   0.62347835
3755.00   0.68878287
3756.00   0.66254860
3757.00   0.57694620
3758.00   0.57224381
3759.00   0.55612671
3760.00   0.65085328
3761.00   0.55873096
3762.00   0.63940638
3763.00   0.74236560
3764.00   0.67567229
3765.00   0.64026803
3766.00   0.63167506
3767.00   0.58835959
3768.00   0.57838792
3769.00   0.63628989
3770.00   0.61019659
3771.00   0.60654932
3772.00   0.59335589
3773.00   0.53825605
3774.00   0.62039995
3775.00   0.63685358
3776.00   0.59616017
3777.00   0.63367951
3778.00   0.66288638
3779.00   0.57535821
3780.00   0.59263521
3781.00   0.53558111
3782.00   0.57394266
3783.00   0.64138103
3784.00   0.58336270
3785.00   0.54627603
3786.00   0.53505641
3787.00   0.56311047
3788.00   0.60001969
3789.00   0.62073779
3790.00   0.61598682
3791.00   0.61203849
3792.00   0.62037498
3793.00   0.60735780
3794.00   0.60430855
3795.00   0.55572152
3796.00   0.55956286
3797.00   0.56250060
3798.00   0.52919161
3799.00   0.54041266
3800.00   0.61944020
3801.00   0.60528517
3802.00   0.59705907
3803.00   0.53194541
3804.00   0.58143044
3805.00   0.56049258
3806.00   0.54817933
3807.00   0.48926118
3808.00   0.48112893
3809.00   0.54049790
3810.00   0.56283849
3811.00   0.53913999
3812.00   0.54073417
3813.00   0.53885299
3814.00   0.54709029
3815.00   0.53584105
3816.00   0.49697292
3817.00   0.51545137
3818.00   0.54523188
3819.00   0.61110383
3820.00   0.57342035
3821.00   0.51981932
3822.00   0.48441175
3823.00   0.56023365
3824.00   0.54930371
3825.00   0.53235120
3826.00   0.56375110
3827.00   0.56307232
3828.00   0.52931887
3829.00   0.51962811
3830.00   0.55467457
3831.00   0.59605622
3832.00   0.60269201
3833.00   0.59015077
3834.00   0.59017444
3835.00   0.59177113
3836.00   0.61551529
3837.00   0.58228886
3838.00   0.58915377
3839.00   0.58097655
3840.00   0.53849113
3841.00   0.59559131
3842.00   0.66284662
3843.00   0.68716681
3844.00   0.64474458
3845.00   0.60429877
3846.00   0.60998529
3847.00   0.62205923
3848.00   0.58651340
3849.00   0.56609046
3850.00   0.56098896
3851.00   0.59456444
3852.00   0.63242352
3853.00   0.61925519
3854.00   0.62920344
3855.00   0.63478261
3856.00   0.60411292
3857.00   0.60060161
3858.00   0.63668257
3859.00   0.66388756
3860.00   0.67117620
3861.00   0.59928972
3862.00   0.63441080
3863.00   0.64968675
3864.00   0.63709241
3865.00   0.66335750
3866.00   0.63239449
3867.00   0.71163398
3868.00   0.68962854
3869.00   0.63837367
3870.00   0.64998329
3871.00   0.62411731
3872.00   0.61399025
3873.00   0.63581681
3874.00   0.66104907
3875.00   0.67168635
3876.00   0.64015090
3877.00   0.62328231
3878.00   0.62374467
3879.00   0.61804318
3880.00   0.63276374
3881.00   0.61510342
3882.00   0.59105206
3883.00   0.55644745
3884.00   0.56462866
3885.00   0.60815680
3886.00   0.61504596
3887.00   0.58140463
3888.00   0.53885961
3889.00   0.50888228
3890.00   0.53425485
3891.00   0.57064706
3892.00   0.56334901
3893.00   0.57832164
3894.00   0.59335047
3895.00   0.58152747
3896.00   0.58199656
3897.00   0.58244962
3898.00   0.61136401
3899.00   0.64480919
3900.00   0.64657515
3901.00   0.61548305
3902.00   0.62536520
3903.00   0.67994297
3904.00   0.63309050
3905.00   0.60670984
3906.00   0.69374681
3907.00   0.66012961
3908.00   0.60884094
3909.00   0.65233666
3910.00   0.62982702
3911.00   0.57014483
3912.00   0.61480588
3913.00   0.57610554
3914.00   0.63495910
3915.00   0.62326264
3916.00   0.59592915
3917.00   0.62241334
3918.00   0.60182351
3919.00   0.58793950
3920.00   0.57665712
3921.00   0.60123390
3922.00   0.64691091
3923.00   0.59450513
3924.00   0.61409616
3925.00   0.58112729
3926.00   0.59488410
3927.00   0.60781658
3928.00   0.57004678
3929.00   0.53454053
3930.00   0.59051841
#3931.00   0.58013892
#3932.00   0.50715315
#3933.00   0.43360290
#3934.00   0.50051332
#3935.00   0.62880564
3936.00   0.59389055
3937.00   0.57153523
3938.00   0.62336230
3939.00   0.61056089
3940.00   0.63129658
3941.00   0.64181530
3942.00   0.61764675
3943.00   0.65301567
3944.00   0.66097260
3945.00   0.66824245
3946.00   0.65680969
3947.00   0.63576251
3948.00   0.67808324
3949.00   0.64191383
3950.00   0.61932129
3951.00   0.59823984
3952.00   0.61016303
3953.00   0.62938833
3954.00   0.60151190
3955.00   0.58397418
3956.00   0.62045789
3957.00   0.62852746
3958.00   0.65868902
3959.00   0.64757097
3960.00   0.62504393
3961.00   0.57344890
3962.00   0.59840435
3963.00   0.66206050
3964.00   0.58464938
3965.00   0.53298694
3966.00   0.64088899
3967.00   0.58868104
3968.00   0.56740391
3969.00   0.58216125
3970.00   0.60365641
3971.00   0.64234281
3972.00   0.64721489
3973.00   0.61426818
3974.00   0.63549656
3975.00   0.64760220
3976.00   0.63584656
3977.00   0.66428280
3978.00   0.64848536
3979.00   0.66356766
3980.00   0.62294495
3981.00   0.62082571
3982.00   0.65999442
3983.00   0.66199368
3984.00   0.63311273
3985.00   0.59727055
3986.00   0.59032077
3987.00   0.58353525
3988.00   0.59684891
3989.00   0.64028746
3990.00   0.65834951
3991.00   0.62374842
3992.00   0.63124615
3993.00   0.63956660
3994.00   0.59489763
3995.00   0.63533765
3996.00   0.66448259
3997.00   0.62748361
3998.00   0.58750767
3999.00   0.58748150
4000.00   0.60944009
4001.00   0.67687935
4002.00   0.63913101
4003.00   0.63608992
4004.00   0.67304105
4005.00   0.62938142
4006.00   0.61083299
4007.00   0.67806804
4008.00   0.65883750
4009.00   0.67029697
4010.00   0.70277828
4011.00   0.62116957
4012.00   0.60311121
4013.00   0.67152292
4014.00   0.68734509
4015.00   0.65240705
4016.00   0.68260384
4017.00   0.66043526
4018.00   0.69101417
4019.00   0.65618974
4020.00   0.61053914
4021.00   0.68662065
4022.00   0.69248283
4023.00   0.65354389
4024.00   0.59331125
4025.00   0.63221431
4026.00   0.67973822
4027.00   0.67460215
4028.00   0.65983343
4029.00   0.62549824
4030.00   0.63349998
4031.00   0.62705421
4032.00   0.68052322
4033.00   0.70397907
4034.00   0.68167281
4035.00   0.70026773
4036.00   0.71711773
4037.00   0.69237131
4038.00   0.68846506
4039.00   0.71129590
4040.00   0.69300354
4041.00   0.72457451
4042.00   0.76355571
4043.00   0.74133736
4044.00   0.75023186
4045.00   0.76171827
4046.00   0.75767136
4047.00   0.66058564
4048.00   0.62702751
4049.00   0.74613178
4050.00   0.70574450
4051.00   0.64457768
4052.00   0.72675878
4053.00   0.71007568
4054.00   0.72904897
4055.00   0.73589760
4056.00   0.68649340
4057.00   0.69797307
4058.00   0.72327518
4059.00   0.64882553
4060.00   0.69650233
4061.00   0.67610836
4062.00   0.66573858
4063.00   0.66019350
4064.00   0.65508687
4065.00   0.65682286
4066.00   0.69579476
4067.00   0.64484245
4068.00   0.63057309
4069.00   0.64022475
4070.00   0.64379561
4071.00   0.67390424
4072.00   0.67106330
4073.00   0.64217395
4074.00   0.63641953
4075.00   0.59679186
4076.00   0.63004076
4077.00   0.62609565
4078.00   0.63711840
4079.00   0.61934328
4080.00   0.62333822
4081.00   0.68454397
4082.00   0.66202050
4083.00   0.63868624
4084.00   0.64347261
4085.00   0.63055730
4086.00   0.61126834
4087.00   0.61596644
4088.00   0.59159958
4089.00   0.58655971
4090.00   0.60242158
4091.00   0.61149102
4092.00   0.63336259
4093.00   0.64231473
4094.00   0.61993480
4095.00   0.55512595
4096.00   0.56374842
4097.00   0.61350226
4098.00   0.59247911
4099.00   0.59772384
4100.00   0.60742116
4101.00   0.62562925
4102.00   0.61599976
4103.00   0.58728695
4104.00   0.59690964
4105.00   0.59640843
4106.00   0.60229409
4107.00   0.63106322
4108.00   0.62632853
4109.00   0.60454208
4110.00   0.64981091
4111.00   0.68895429
4112.00   0.67946237
4113.00   0.62258583
4114.00   0.61837375
4115.00   0.62201142
4116.00   0.61473894
4117.00   0.63662910
4118.00   0.63787520
4119.00   0.59105480
4120.00   0.64658022
4121.00   0.66273677
4122.00   0.66281080
4123.00   0.59648597
4124.00   0.64216298
4125.00   0.64191169
4126.00   0.60666829
4127.00   0.60613769
4128.00   0.66278887
4129.00   0.67731416
4130.00   0.65139312
4131.00   0.65873176
4132.00   0.63301194
4133.00   0.66619813
4134.00   0.65203309
4135.00   0.64013213
4136.00   0.66153502
4137.00   0.66208965
4138.00   0.66182846
4139.00   0.61629730
4140.00   0.60762280
4141.00   0.68161136
4142.00   0.70096087
4143.00   0.65219259
4144.00   0.63880920
4145.00   0.66768897
4146.00   0.68946832
4147.00   0.70278150
4148.00   0.67555159
4149.00   0.64131939
4150.00   0.65218556
4151.00   0.67505395
4152.00   0.67027962
4153.00   0.66711485
4154.00   0.65888178
4155.00   0.71600741
4156.00   0.73730230
4157.00   0.69747251
4158.00   0.71941829
4159.00   0.72309011
4160.00   0.68824893
4161.00   0.65511137
4162.00   0.65530241
4163.00   0.72465295
4164.00   0.69149834
4165.00   0.63498569
4166.00   0.70769644
4167.00   0.65337670
4168.00   0.71614796
4169.00   0.73136824
4170.00   0.72069311
4171.00   0.69692475
4172.00   0.65611696
4173.00   0.66330510
4174.00   0.64715493
4175.00   0.70223397
4176.00   0.68501550
4177.00   0.64116561
4178.00   0.64078528
4179.00   0.65654659
4180.00   0.68457538
4181.00   0.68713146
4182.00   0.66840333
4183.00   0.69502091
4184.00   0.68240058
4185.00   0.70596117
4186.00   0.69433343
4187.00   0.64930481
4188.00   0.61832660
4189.00   0.61755508
4190.00   0.62735009
4191.00   0.63605356
4192.00   0.68054163
4193.00   0.69740319
4194.00   0.68211651
4195.00   0.67708427
4196.00   0.68319696
4197.00   0.68824607
4198.00   0.63662714
4199.00   0.62238163
4200.00   0.67528450
4201.00   0.67199653
4202.00   0.65015692
4203.00   0.66415489
4204.00   0.66786098
4205.00   0.65965039
4206.00   0.64828128
4207.00   0.63669801
4208.00   0.63120699
4209.00   0.66154861
4210.00   0.67850953
4211.00   0.67885041
4212.00   0.69348794
4213.00   0.69430411
4214.00   0.69480318
4215.00   0.66307265
4216.00   0.66189688
4217.00   0.69338149
4218.00   0.69240230
4219.00   0.66432941
4220.00   0.69216532
4221.00   0.71435034
4222.00   0.66164595
4223.00   0.63413936
4224.00   0.65515012
4225.00   0.66115791
4226.00   0.65901273
4227.00   0.66244870
4228.00   0.65303594
4229.00   0.64087069
4230.00   0.65397221
4231.00   0.61753654
4232.00   0.57356197
4233.00   0.61213237
4234.00   0.64467686
4235.00   0.61195821
4236.00   0.60102570
4237.00   0.64177680
4238.00   0.64509398
4239.00   0.61937809
4240.00   0.64505905
4241.00   0.67557544
4242.00   0.68026233
4243.00   0.65308344
4244.00   0.64479554
4245.00   0.66915858
4246.00   0.66110510
4247.00   0.70240104
4248.00   0.69586051
4249.00   0.61528319
4250.00   0.64570469
4251.00   0.69428879
4252.00   0.66154438
4253.00   0.65382677
4254.00   0.67835659
4255.00   0.69359857
4256.00   0.67554313
4257.00   0.66102713
4258.00   0.64878923
4259.00   0.66254503
4260.00   0.67947716
4261.00   0.67936277
4262.00   0.65966415
4263.00   0.69256920
4264.00   0.61367804
4265.00   0.62920690
4266.00   0.66452664
4267.00   0.66501194
4268.00   0.62701893
4269.00   0.63625318
4270.00   0.66601026
4271.00   0.70012254
4272.00   0.70342445
4273.00   0.67158717
4274.00   0.65796822
4275.00   0.66675895
4276.00   0.65557986
4277.00   0.68822134
4278.00   0.69630015
4279.00   0.67601484
4280.00   0.65926439
4281.00   0.71610510
4282.00   0.69400740
4283.00   0.66593045
4284.00   0.68849421
4285.00   0.71877253
4286.00   0.65467906
4287.00   0.61580145
4288.00   0.64695859
4289.00   0.67353302
4290.00   0.69696575
4291.00   0.69931358
4292.00   0.68959320
4293.00   0.66866243
4294.00   0.63459975
4295.00   0.65606755
4296.00   0.68917465
4297.00   0.68514329
4298.00   0.70003891
4299.00   0.69662178
4300.00   0.68884289
4301.00   0.67808115
4302.00   0.66732121
4303.00   0.68663877
4304.00   0.68182242
4305.00   0.66235751
4306.00   0.63803786
4307.00   0.65375811
4308.00   0.68248302
4309.00   0.70627528
4310.00   0.68304479
4311.00   0.71743554
4312.00   0.70134634
4313.00   0.65169877
4314.00   0.59029138
4315.00   0.67198020
4316.00   0.63914251
4317.00   0.63119346
4318.00   0.65379620
4319.00   0.70363843
4320.00   0.71639651
4321.00   0.70250499
4322.00   0.67141485
4323.00   0.64374316
4324.00   0.66191465
4325.00   0.68304378
4326.00   0.70852667
4327.00   0.70344186
4328.00   0.66781348
4329.00   0.68408966
4330.00   0.68893957
4331.00   0.64355332
4332.00   0.66288477
4333.00   0.68021411
4334.00   0.66060340
4335.00   0.66697150
4336.00   0.68279386
4337.00   0.65078479
4338.00   0.62462252
4339.00   0.63634926
4340.00   0.62511706
4341.00   0.65899265
4342.00   0.68002069
4343.00   0.64395475
4344.00   0.63477832
4345.00   0.67398769
4346.00   0.68140906
4347.00   0.63389003
4348.00   0.66933316
4349.00   0.65938896
4350.00   0.64079559
#4351.00   0.64048851
#4352.00   0.63921404
#4353.00   0.65880376
#4354.00   0.71036679
#4355.00   0.73851019
#4356.00   0.88839281
#4357.00   0.86531258
#4358.00   0.71661240
#4359.00   0.76640505
#4360.00   0.62114173
#4361.00   0.61208552
#4362.00   0.65305346
4363.00   0.62063581
4364.00   0.63717663
4365.00   0.66142666
4366.00   0.65520442
4367.00   0.66112000
4368.00   0.64552712
4369.00   0.65223491
4370.00   0.69019228
4371.00   0.72060162
4372.00   0.67557836
4373.00   0.63734066
4374.00   0.63602829
4375.00   0.66345882
4376.00   0.71362102
4377.00   0.69216818
4378.00   0.69814432
4379.00   0.69728440
4380.00   0.69656736
4381.00   0.70056391
4382.00   0.62515706
4383.00   0.61249888
4384.00   0.63458592
4385.00   0.66104150
4386.00   0.66533726
4387.00   0.65144449
4388.00   0.64907938
4389.00   0.66213971
4390.00   0.66968471
4391.00   0.69378269
4392.00   0.67769843
4393.00   0.64666557
4394.00   0.65464687
4395.00   0.66051352
4396.00   0.67290080
4397.00   0.67087585
4398.00   0.68891823
4399.00   0.68845272
4400.00   0.66138029
4401.00   0.68161392
4402.00   0.68897241
4403.00   0.68991679
4404.00   0.66876936
4405.00   0.64870882
4406.00   0.65744567
4407.00   0.65725356
4408.00   0.66094559
4409.00   0.70684695
4410.00   0.71429074
4411.00   0.66034746
4412.00   0.64811015
4413.00   0.66095948
4414.00   0.66515338
4415.00   0.65023673
4416.00   0.62464941
4417.00   0.61590171
4418.00   0.63404667
4419.00   0.64609456
4420.00   0.62587410
4421.00   0.56833333
4422.00   0.59473538
4423.00   0.60100454
4424.00   0.58879375
4425.00   0.59270227
4426.00   0.58442509
4427.00   0.58237612
4428.00   0.56899166
4429.00   0.57846737
4430.00   0.56316215
4431.00   0.56543589
4432.00   0.60390610
4433.00   0.61861640
4434.00   0.61425167
4435.00   0.58510488
4436.00   0.58253157
4437.00   0.60246038
4438.00   0.59742600
4439.00   0.61169636
4440.00   0.62810230
4441.00   0.60948420
4442.00   0.60895342
4443.00   0.63209778
4444.00   0.62381142
4445.00   0.61402833
4446.00   0.60632408
4447.00   0.59263182
4448.00   0.62736219
4449.00   0.64308822
4450.00   0.62827146
4451.00   0.61286771
4452.00   0.62052101
4453.00   0.67192739
4454.00   0.65379322
4455.00   0.59819019
4456.00   0.60053223
4457.00   0.60807532
4458.00   0.62636220
4459.00   0.66043496
4460.00   0.64810103
4461.00   0.65588295
4462.00   0.69785309
4463.00   0.69825464
4464.00   0.66929609
4465.00   0.59537607
4466.00   0.64638078
4467.00   0.59380460
4468.00   0.61714375
4469.00   0.62984532
4470.00   0.59729582
4471.00   0.60351539
4472.00   0.59538776
4473.00   0.60831636
4474.00   0.58266997
4475.00   0.63768947
4476.00   0.64584559
4477.00   0.68081599
4478.00   0.65425950
4479.00   0.64030677
4480.00   0.67748922
4481.00   0.66116238
4482.00   0.66574401
4483.00   0.68676043
4484.00   0.67816103
4485.00   0.67761743
4486.00   0.66808081
4487.00   0.68930471
4488.00   0.72113013
4489.00   0.71420974
4490.00   0.69811928
4491.00   0.71033365
4492.00   0.75472838
4493.00   0.76544058
4494.00   0.71603799
4495.00   0.69963604
4496.00   0.75163239
4497.00   0.78534281
4498.00   0.73895419
4499.00   0.69169801
4500.00   0.72316080
4501.00   0.73638254
4502.00   0.70878959
4503.00   0.72782904
4504.00   0.74238259
4505.00   0.72015876
4506.00   0.71510834
4507.00   0.74485815
4508.00   0.76172781
4509.00   0.75454277
4510.00   0.72896343
4511.00   0.72391599
4512.00   0.72633642
4513.00   0.71206093
4514.00   0.71920282
4515.00   0.75468427
4516.00   0.70012832
4517.00   0.69256091
4518.00   0.68134600
4519.00   0.68609118
4520.00   0.70244908
4521.00   0.71206313
4522.00   0.73692054
4523.00   0.70175457
4524.00   0.71184677
4525.00   0.73596048
4526.00   0.75085628
4527.00   0.71693462
4528.00   0.68102455
4529.00   0.74493951
4530.00   0.76392198
4531.00   0.70387739
4532.00   0.68810761
4533.00   0.73100728
4534.00   0.75227070
4535.00   0.73835582
4536.00   0.73955333
4537.00   0.73364216
4538.00   0.71659201
4539.00   0.72943854
4540.00   0.74327499
4541.00   0.72593760
4542.00   0.73434728
4543.00   0.73940045
4544.00   0.73123908
4545.00   0.77810186
4546.00   0.80758190
4547.00   0.79843432
4548.00   0.79789567
4549.00   0.77358180
4550.00   0.77415413
4551.00   0.80233860
4552.00   0.80639148
4553.00   0.81680816
4554.00   0.79230255
4555.00   0.75654590
4556.00   0.77946126
4557.00   0.78153747
4558.00   0.78887558
4559.00   0.80640000
4560.00   0.77862829
4561.00   0.81107122
4562.00   0.74495387
4563.00   0.72807139
4564.00   0.74119854
4565.00   0.78147858
4566.00   0.75340432
4567.00   0.74311584
4568.00   0.75745749
4569.00   0.78017366
4570.00   0.77555424
4571.00   0.72976851
4572.00   0.78255963
4573.00   0.77485013
4574.00   0.76042068
4575.00   0.78263563
4576.00   0.74580228
4577.00   0.73811716
4578.00   0.77082181
4579.00   0.76638776
4580.00   0.80293983
4581.00   0.77815074
4582.00   0.75173104
4583.00   0.77382106
4584.00   0.76412874
4585.00   0.75075889
4586.00   0.76935530
4587.00   0.76251203
4588.00   0.73954993
4589.00   0.74503618
4590.00   0.75152838
4591.00   0.74814790
4592.00   0.77464378
4593.00   0.80712128
4594.00   0.79196751
4595.00   0.76403332
4596.00   0.77380961
4597.00   0.80189365
4598.00   0.80534273
4599.00   0.78337252
4600.00   0.78146011
4601.00   0.79328191
4602.00   0.78321201
4603.00   0.78846580
4604.00   0.79538441
4605.00   0.75728047
4606.00   0.76710761
4607.00   0.77860469
4608.00   0.77586180
4609.00   0.75348383
4610.00   0.75040168
4611.00   0.74777389
4612.00   0.77931076
4613.00   0.78917682
4614.00   0.80066454
4615.00   0.74938560
4616.00   0.77160847
4617.00   0.78714180
4618.00   0.79196817
4619.00   0.80073631
4620.00   0.78613371
4621.00   0.78801769
4622.00   0.75778526
4623.00   0.78132576
4624.00   0.77224606
4625.00   0.79956609
4626.00   0.79595089
4627.00   0.75977850
4628.00   0.77123755
4629.00   0.76668322
4630.00   0.74478143
4631.00   0.74188149
4632.00   0.77233922
4633.00   0.78087926
4634.00   0.77177376
4635.00   0.81646669
4636.00   0.82184643
4637.00   0.77342361
4638.00   0.75324988
4639.00   0.78850639
4640.00   0.77415484
4641.00   0.75915474
4642.00   0.76645267
4643.00   0.76347202
4644.00   0.76021463
4645.00   0.78299713
4646.00   0.80919445
4647.00   0.78883415
4648.00   0.75737715
4649.00   0.75401354
4650.00   0.78930593
4651.00   0.76599568
4652.00   0.76154840
4653.00   0.76516682
4654.00   0.77068985
4655.00   0.77027911
4656.00   0.73509359
4657.00   0.71083421
4658.00   0.77019203
4659.00   0.76199484
4660.00   0.75487548
4661.00   0.76467264
4662.00   0.74704403
4663.00   0.75824606
4664.00   0.77567899
4665.00   0.75724423
4666.00   0.72713369
4667.00   0.72636247
4668.00   0.74006033
4669.00   0.73076451
4670.00   0.71150726
4671.00   0.73719019
4672.00   0.75338447
4673.00   0.72706121
4674.00   0.79482502
4675.00   0.76629937
4676.00   0.73209131
4677.00   0.72539288
4678.00   0.75169253
4679.00   0.75232542
4680.00   0.74074030
4681.00   0.73959160
4682.00   0.73667473
4683.00   0.74247664
4684.00   0.78740925
4685.00   0.75831479
4686.00   0.74070388
4687.00   0.76105589
4688.00   0.77353758
4689.00   0.75857979
4690.00   0.73825860
4691.00   0.72555763
4692.00   0.74786538
4693.00   0.77089012
4694.00   0.76320958
4695.00   0.76976091
4696.00   0.77298993
4697.00   0.76521331
4698.00   0.76613021
4699.00   0.76568639
4700.00   0.75433344
4701.00   0.73624980
4702.00   0.75812745
4703.00   0.76275885
4704.00   0.71877414
4705.00   0.71541989
4706.00   0.73866320
4707.00   0.75025362
4708.00   0.72949296
4709.00   0.75016659
4710.00   0.74664915
4711.00   0.74869424
4712.00   0.75486702
4713.00   0.70653170
4714.00   0.71933800
4715.00   0.73535818
4716.00   0.71627545
4717.00   0.71924770
4718.00   0.71773797
4719.00   0.75653476
4720.00   0.73749608
4721.00   0.75566393
4722.00   0.76983911
4723.00   0.70985281
4724.00   0.71852177
4725.00   0.73067933
4726.00   0.71145624
4727.00   0.71037424
4728.00   0.74329263
4729.00   0.78518593
4730.00   0.71567971
4731.00   0.72819656
4732.00   0.76945662
4733.00   0.70916384
4734.00   0.74229157
4735.00   0.77914596
4736.00   0.74923629
4737.00   0.72873980
4738.00   0.72824371
4739.00   0.71239328
4740.00   0.71259600
4741.00   0.72670883
4742.00   0.71513373
4743.00   0.72174925
4744.00   0.76168793
4745.00   0.75798953
4746.00   0.69183445
4747.00   0.64240277
4748.00   0.68069911
4749.00   0.73690897
4750.00   0.72325587
4751.00   0.72077858
4752.00   0.73187882
4753.00   0.69300812
4754.00   0.67657340
4755.00   0.70046234
4756.00   0.69424093
4757.00   0.66430813
4758.00   0.67177403
4759.00   0.71735191
4760.00   0.71923888
4761.00   0.70279026
4762.00   0.68146557
4763.00   0.68229181
4764.00   0.73416996
4765.00   0.76806378
4766.00   0.67005980
4767.00   0.68498683
4768.00   0.67685604
4769.00   0.67782563
4770.00   0.69064087
4771.00   0.68564612
4772.00   0.65089238
4773.00   0.67512327
4774.00   0.69050944
4775.00   0.67148006
4776.00   0.65752536
4777.00   0.67172843
4778.00   0.68436366
4779.00   0.66422635
4780.00   0.67196810
4781.00   0.70859718
4782.00   0.69528091
4783.00   0.66980356
4784.00   0.67553920
4785.00   0.67451555
4786.00   0.67606956
4787.00   0.67325711
4788.00   0.66553169
4789.00   0.65361065
4790.00   0.67128134
4791.00   0.65958923
4792.00   0.62768936
4793.00   0.64343494
4794.00   0.65570354
4795.00   0.66325980
4796.00   0.67977720
4797.00   0.65967500
4798.00   0.65328521
4799.00   0.67705363
4800.00   0.67655271
4801.00   0.67155051
4802.00   0.64710540
4803.00   0.62883741
4804.00   0.64341253
4805.00   0.65443480
4806.00   0.67061615
4807.00   0.67111558
4808.00   0.66372108
4809.00   0.68989635
4810.00   0.66303235
4811.00   0.62650162
4812.00   0.64563709
4813.00   0.65075576
4814.00   0.65641183
4815.00   0.65589827
4816.00   0.68989205
4817.00   0.69358915
4818.00   0.66877151
4819.00   0.65769339
4820.00   0.66816580
4821.00   0.65251213
4822.00   0.68408555
4823.00   0.69579917
4824.00   0.66907364
4825.00   0.66539985
4826.00   0.67154193
4827.00   0.66187328
4828.00   0.67016500
4829.00   0.69956136
4830.00   0.68288755
4831.00   0.64514649
4832.00   0.67171037
4833.00   0.68708158
4834.00   0.63460761
4835.00   0.63151366
4836.00   0.68799555
4837.00   0.70951647
4838.00   0.69896710
4839.00   0.66816223
4840.00   0.65141761
4841.00   0.65506923
4842.00   0.66686851
4843.00   0.67746258
4844.00   0.67387593
4845.00   0.66756725
4846.00   0.67982554
4847.00   0.67326999
4848.00   0.63299268
4849.00   0.63891900
4850.00   0.66823012
4851.00   0.65872806
4852.00   0.64496261
4853.00   0.64511180
4854.00   0.67658484
4855.00   0.68680787
4856.00   0.64822048
4857.00   0.65394795
4858.00   0.66209269
4859.00   0.65736562
4860.00   0.62952340
4861.00   0.61437875
4862.00   0.60652959
4863.00   0.59520197
4864.00   0.64989537
4865.00   0.62546855
4866.00   0.64785075
4867.00   0.64648378
4868.00   0.65269697
4869.00   0.65825129
4870.00   0.65480006
4871.00   0.64771003
4872.00   0.63580954
4873.00   0.64896595
4874.00   0.62612695
4875.00   0.60494041
4876.00   0.62628269
4877.00   0.64653689
4878.00   0.66078621
4879.00   0.63695961
4880.00   0.63221669
4881.00   0.65312487
4882.00   0.66279775
4883.00   0.69610596
4884.00   0.65925723
4885.00   0.66492742
4886.00   0.70308316
4887.00   0.70547944
4888.00   0.67676890
4889.00   0.68306816
4890.00   0.68090349
4891.00   0.67797804
4892.00   0.70774996
4893.00   0.71377110
4894.00   0.70599627
4895.00   0.69833606
4896.00   0.67549014
4897.00   0.68112081
4898.00   0.69576073
4899.00   0.67076439
4900.00   0.67157161
4901.00   0.71716619
4902.00   0.71207762
4903.00   0.67829484
4904.00   0.71024734
4905.00   0.73851663
4906.00   0.70928955
4907.00   0.69274807
4908.00   0.70699936
4909.00   0.72036469
4910.00   0.71162641
4911.00   0.70198399
4912.00   0.70763272
4913.00   0.74583834
4914.00   0.75351018
4915.00   0.74943417
4916.00   0.72253430
4917.00   0.70189148
4918.00   0.71060485
4919.00   0.68703085
4920.00   0.68731278
4921.00   0.72755307
4922.00   0.71034896
4923.00   0.71144783
4924.00   0.73629624
4925.00   0.69239968
4926.00   0.67507982
4927.00   0.70552677
4928.00   0.71836722
4929.00   0.72133797
4930.00   0.72963709
4931.00   0.73347074
4932.00   0.72476619
4933.00   0.70484561
4934.00   0.73031044
4935.00   0.75688583
4936.00   0.72178745
4937.00   0.70352870
4938.00   0.73641962
4939.00   0.74157172
4940.00   0.73040891
4941.00   0.73946166
4942.00   0.73956412
4943.00   0.73510146
4944.00   0.72257817
4945.00   0.72253644
4946.00   0.72927660
4947.00   0.72409570
4948.00   0.70281309
4949.00   0.67097580
4950.00   0.67382854
4951.00   0.68267769
4952.00   0.69150430
4953.00   0.68557346
4954.00   0.68520612
4955.00   0.69768208
4956.00   0.68801761
4957.00   0.67325276
4958.00   0.68058562
4959.00   0.71464944
4960.00   0.69423419
4961.00   0.65503460
4962.00   0.67546874
4963.00   0.69831705
4964.00   0.69224316
4965.00   0.67014229
4966.00   0.69981509
4967.00   0.68318063
4968.00   0.70531797
4969.00   0.72439623
4970.00   0.68184954
4971.00   0.70145226
4972.00   0.69560581
4973.00   0.71255314
4974.00   0.70572317
4975.00   0.68934929
4976.00   0.70160568
4977.00   0.69354516
4978.00   0.69635147
4979.00   0.70190561
4980.00   0.67776358
4981.00   0.66690087
4982.00   0.68688375
4983.00   0.70136660
4984.00   0.69310832
4985.00   0.69420177
4986.00   0.67520887
4987.00   0.65968996
4988.00   0.69828737
4989.00   0.73834336
4990.00   0.72520053
4991.00   0.70059925
4992.00   0.71421176
4993.00   0.73391289
4994.00   0.73633701
4995.00   0.74486202
4996.00   0.74416864
4997.00   0.73438144
4998.00   0.74018323
4999.00   0.75021315
5000.00   0.75599706
5001.00   0.76052886
5002.00   0.77095550
5003.00   0.75889659
5004.00   0.73512071
5005.00   0.75336182
5006.00   0.75468904
5007.00   0.76266301
5008.00   0.78249544
5009.00   0.77443373
5010.00   0.72109395
5011.00   0.73570758
5012.00   0.73179269
5013.00   0.74999100
5014.00   0.77364308
5015.00   0.79570806
5016.00   0.77148962
5017.00   0.75883728
5018.00   0.75338548
5019.00   0.73432803
5020.00   0.73359877
5021.00   0.74739623
5022.00   0.77115452
5023.00   0.78188109
5024.00   0.81213307
5025.00   0.80010319
5026.00   0.76825982
5027.00   0.79453307
5028.00   0.78999496
5029.00   0.79915661
5030.00   0.81686974
5031.00   0.82480079
5032.00   0.82328230
5033.00   0.81716442
5034.00   0.80849582
5035.00   0.81221908
5036.00   0.81587738
5037.00   0.81827319
5038.00   0.81925899
5039.00   0.82113034
5040.00   0.83189064
5041.00   0.83165944
5042.00   0.84430438
5043.00   0.83992153
5044.00   0.80713755
5045.00   0.79480469
5046.00   0.79946721
5047.00   0.79365224
5048.00   0.80267769
5049.00   0.81069016
5050.00   0.79408085
5051.00   0.82183391
5052.00   0.84831327
5053.00   0.83223122
5054.00   0.83274639
5055.00   0.82557529
5056.00   0.80288601
5057.00   0.81003082
5058.00   0.80829364
5059.00   0.81188482
5060.00   0.83944517
5061.00   0.81220245
5062.00   0.82699001
5063.00   0.86228043
5064.00   0.80447090
5065.00   0.82532257
5066.00   0.79162240
5067.00   0.79415047
5068.00   0.78423488
5069.00   0.76188207
5070.00   0.75922775
5071.00   0.73992157
5072.00   0.75742036
5073.00   0.75417614
5074.00   0.74373055
5075.00   0.76634628
5076.00   0.73859268
5077.00   0.71943247
5078.00   0.77539164
5079.00   0.79346400
5080.00   0.74801183
5081.00   0.71641600
5082.00   0.75701749
5083.00   0.72757113
5084.00   0.76314199
5085.00   0.76303804
5086.00   0.73153782
5087.00   0.71134043
5088.00   0.71294892
5089.00   0.72712255
5090.00   0.73044461
5091.00   0.74222225
5092.00   0.74897331
5093.00   0.73633027
5094.00   0.72954297
5095.00   0.70722479
5096.00   0.68784070
5097.00   0.70145643
5098.00   0.70087290
5099.00   0.69947320
5100.00   0.69357240
5101.00   0.66522360
5102.00   0.68513083
5103.00   0.69740480
5104.00   0.66812307
5105.00   0.67243153
5106.00   0.66801608
5107.00   0.66209221
5108.00   0.70330727
5109.00   0.71822870
5110.00   0.68509829
5111.00   0.67670745
5112.00   0.69748342
5113.00   0.69724482
5114.00   0.69888270
5115.00   0.70449126
5116.00   0.63562095
5117.00   0.67281282
5118.00   0.67349887
5119.00   0.65248209
5120.00   0.66017085
5121.00   0.65940505
5122.00   0.68759549
5123.00   0.68386191
5124.00   0.66160184
5125.00   0.68726885
5126.00   0.69508851
5127.00   0.66789919
5128.00   0.66207373
5129.00   0.68052816
5130.00   0.70494473
5131.00   0.69358957
5132.00   0.65994656
5133.00   0.68378329
5134.00   0.72568101
5135.00   0.71512324
5136.00   0.69714504
5137.00   0.68204248
5138.00   0.69396257
5139.00   0.72663373
5140.00   0.74648130
5141.00   0.73475039
5142.00   0.72300917
5143.00   0.72380656
5144.00   0.74254543
5145.00   0.75813848
5146.00   0.73050463
5147.00   0.71681482
5148.00   0.71973288
5149.00   0.69873399
5150.00   0.69529074
5151.00   0.68850857
5152.00   0.69032359
5153.00   0.71620375
5154.00   0.71671104
5155.00   0.73672032
5156.00   0.74162078
5157.00   0.73330688
5158.00   0.73762101
5159.00   0.73653632
5160.00   0.71251845
5161.00   0.70046097
5162.00   0.69276595
5163.00   0.70212132
5164.00   0.74098730
5165.00   0.72920853
5166.00   0.69250268
5167.00   0.70235491
5168.00   0.72483528
5169.00   0.74813026
5170.00   0.72664559
5171.00   0.69077492
5172.00   0.73380715
5173.00   0.73628706
5174.00   0.71906453
5175.00   0.72670680
5176.00   0.73406047
5177.00   0.74525154
5178.00   0.73174232
5179.00   0.70866811
5180.00   0.72897768
5181.00   0.74190605
5182.00   0.72773379
5183.00   0.71930492
5184.00   0.69985312
5185.00   0.72905493
5186.00   0.73473167
5187.00   0.76026458
5188.00   0.73147100
5189.00   0.69493777
5190.00   0.71097702
5191.00   0.73066509
5192.00   0.73397142
5193.00   0.72469914
5194.00   0.72099560
5195.00   0.74030375
5196.00   0.75109947
5197.00   0.74339515
5198.00   0.74517572
5199.00   0.74265659
5200.00   0.73142147
5201.00   0.69704694
5202.00   0.66335618
5203.00   0.69920295
5204.00   0.71004111
5205.00   0.68406618
5206.00   0.68714756
5207.00   0.70501071
5208.00   0.71885371
5209.00   0.71069801
5210.00   0.69488937
5211.00   0.70080048
5212.00   0.69792813
5213.00   0.70762020
5214.00   0.73905414
5215.00   0.73594427
5216.00   0.73745108
5217.00   0.71169823
5218.00   0.70691431
5219.00   0.69090194
5220.00   0.72837365
5221.00   0.73090756
5222.00   0.74110472
5223.00   0.72584707
5224.00   0.73209518
5225.00   0.72547710
5226.00   0.69257724
5227.00   0.70130467
5228.00   0.72469670
5229.00   0.72881776
5230.00   0.74181110
5231.00   0.73559618
5232.00   0.72961646
5233.00   0.75459981
5234.00   0.74799347
5235.00   0.74775445
5236.00   0.75098830
5237.00   0.70859951
5238.00   0.69142812
5239.00   0.74110615
5240.00   0.75468922
5241.00   0.72528589
5242.00   0.72527945
5243.00   0.73234683
5244.00   0.72023481
5245.00   0.69716203
5246.00   0.67120963
5247.00   0.68146861
5248.00   0.69929796
5249.00   0.71176225
5250.00   0.75304556
5251.00   0.74216586
5252.00   0.69467813
5253.00   0.71210957
5254.00   0.74655157
5255.00   0.75479889
5256.00   0.74477667
5257.00   0.73095828
5258.00   0.72788358
5259.00   0.72144771
5260.00   0.70796162
5261.00   0.71301931
5262.00   0.72798473
5263.00   0.72905737
5264.00   0.73573685
5265.00   0.74698925
5266.00   0.73913741
5267.00   0.75572366
5268.00   0.80815953
5269.00   0.76121956
5270.00   0.74844664
5271.00   0.76939642
5272.00   0.77049440
5273.00   0.76038957
5274.00   0.73985559
5275.00   0.72891694
5276.00   0.72968709
5277.00   0.69054252
5278.00   0.66685212
5279.00   0.74032861
5280.00   0.78590745
5281.00   0.77236789
5282.00   0.77685755
5283.00   0.78845620
5284.00   0.78185719
5285.00   0.75943011
5286.00   0.74397272
5287.00   0.73204333
5288.00   0.74330890
5289.00   0.76087219
5290.00   0.75921530
5291.00   0.75462824
5292.00   0.74160683
5293.00   0.72068447
5294.00   0.73729563
5295.00   0.76979005
5296.00   0.76169342
5297.00   0.76195949
5298.00   0.77463156
5299.00   0.75759357
5300.00   0.74329931
5301.00   0.74212921
5302.00   0.74460304
5303.00   0.76024115
5304.00   0.78089017
5305.00   0.76335496
5306.00   0.74269402
5307.00   0.76003844
5308.00   0.76689249
5309.00   0.73914617
5310.00   0.71414477
5311.00   0.73148865
5312.00   0.77341849
5313.00   0.75164336
5314.00   0.78085673
5315.00   0.79356945
5316.00   0.74420059
5317.00   0.71581000
5318.00   0.72463542
5319.00   0.75324208
5320.00   0.76349568
5321.00   0.75511283
5322.00   0.78443986
5323.00   0.78539503
5324.00   0.74694651
5325.00   0.73873651
5326.00   0.70890075
5327.00   0.75159144
5328.00   0.76473403
5329.00   0.77752584
5330.00   0.72581762
5331.00   0.75046247
5332.00   0.74471068
5333.00   0.71279377
5334.00   0.73571861
5335.00   0.75307441
5336.00   0.76628977
5337.00   0.75587952
5338.00   0.72965145
5339.00   0.73386729
5340.00   0.71016222
5341.00   0.71150303
5342.00   0.71969432
5343.00   0.70020425
5344.00   0.68539196
5345.00   0.73363745
5346.00   0.77020800
5347.00   0.74322855
5348.00   0.73449886
5349.00   0.74510384
5350.00   0.71667016
5351.00   0.68005079
5352.00   0.69627935
5353.00   0.71108657
5354.00   0.71333367
5355.00   0.73695213
5356.00   0.72763968
5357.00   0.69584161
5358.00   0.68699437
5359.00   0.68723279
5360.00   0.73055923
5361.00   0.75736821
5362.00   0.73150009
5363.00   0.68382615
5364.00   0.69808078
5365.00   0.69212961
5366.00   0.64898193
5367.00   0.68039149
5368.00   0.78235584
5369.00   0.78918147
5370.00   0.78115380
5371.00   0.75277662
5372.00   0.72170031
5373.00   0.70160204
5374.00   0.68491387
5375.00   0.68005252
5376.00   0.69063079
5377.00   0.69706488
5378.00   0.70094067
5379.00   0.70496440
5380.00   0.71088105
5381.00   0.71865547
5382.00   0.72232664
5383.00   0.72191429
5384.00   0.72330201
5385.00   0.72724026
5386.00   0.73057878
5387.00   0.73151320
5388.00   0.73330629
5389.00   0.71969861
5390.00   0.68387026
5391.00   0.66208136
5392.00   0.65225220
5393.00   0.65069586
5394.00   0.65810221
5395.00   0.67795295
5396.00   0.68764681
5397.00   0.69339818
5398.00   0.69846529
5399.00   0.70312983
5400.00   0.70627075
5401.00   0.70641267
5402.00   0.70278627
5403.00   0.70303136
5404.00   0.70908320
5405.00   0.70812100
5406.00   0.69654405
5407.00   0.68286818
5408.00   0.67760855
5409.00   0.67495024
5410.00   0.68154353
5411.00   0.70698959
5412.00   0.71742427
5413.00   0.70448667
5414.00   0.68638051
5415.00   0.68877506
5416.00   0.70963496
5417.00   0.70905399
5418.00   0.68941462
5419.00   0.67979318
5420.00   0.68525141
5421.00   0.69564116
5422.00   0.69867456
5423.00   0.69982159
5424.00   0.69716835
5425.00   0.68700057
5426.00   0.68148971
5427.00   0.68311107
5428.00   0.68766654
5429.00   0.69011909
5430.00   0.69694656
5431.00   0.69014692
5432.00   0.66033441
5433.00   0.64919037
5434.00   0.67038506
5435.00   0.70355785
5436.00   0.71375382
5437.00   0.71468085
5438.00   0.70665443
5439.00   0.67836821
5440.00   0.66067338
5441.00   0.66261649
5442.00   0.67261660
5443.00   0.67193133
5444.00   0.66472274
5445.00   0.66226947
5446.00   0.65973097
5447.00   0.66095042
5448.00   0.66820842
5449.00   0.67868960
5450.00   0.68538105
5451.00   0.69762564
5452.00   0.69238591
5453.00   0.66030020
5454.00   0.64500481
5455.00   0.66165769
5456.00   0.69542867
5457.00   0.72115374
5458.00   0.77290320
5459.00   0.76861167
5460.00   0.70705080
5461.00   0.65554857
5462.00   0.63230062
5463.00   0.62356079
5464.00   0.63095945
5465.00   0.67101496
5466.00   0.68709463
5467.00   0.69435841
5468.00   0.69502270
5469.00   0.68762553
5470.00   0.67378283
5471.00   0.66537720
5472.00   0.65529931
5473.00   0.65260637
5474.00   0.65723109
5475.00   0.66311502
5476.00   0.66717058
5477.00   0.67157847
5478.00   0.68181378
5479.00   0.70246440
5480.00   0.71219313
5481.00   0.71747124
5482.00   0.71570516
5483.00   0.70189482
5484.00   0.67931741
5485.00   0.67339903
5486.00   0.67465973
5487.00   0.68444169
5488.00   0.71529615
5489.00   0.73543900
5490.00   0.72488475
5491.00   0.69484735
5492.00   0.67882431
5493.00   0.65755439
5494.00   0.65487611
5495.00   0.67448258
5496.00   0.69442356
5497.00   0.70390522
5498.00   0.70920563
5499.00   0.70290303
5500.00   0.67725307
5501.00   0.66492456
5502.00   0.66214091
5503.00   0.66161931
5504.00   0.65889001
5505.00   0.65596718
5506.00   0.65948141
5507.00   0.66862327
5508.00   0.67878127
5509.00   0.69909680
5510.00   0.71039504
5511.00   0.69418150
5512.00   0.65624207
5513.00   0.64495730
5514.00   0.64691347
5515.00   0.65266269
5516.00   0.66975373
5517.00   0.68482554
5518.00   0.68618339
5519.00   0.67879111
5520.00   0.67134970
5521.00   0.65471005
5522.00   0.64799845
5523.00   0.65314454
5524.00   0.65912640
5525.00   0.65663713
5526.00   0.64920026
5527.00   0.64500743
5528.00   0.63964200
5529.00   0.63824558
5530.00   0.64130336
5531.00   0.64620185
5532.00   0.65090746
5533.00   0.65669227
5534.00   0.66117585
5535.00   0.66545987
5536.00   0.66858864
5537.00   0.67272210
5538.00   0.67357326
5539.00   0.66512573
5540.00   0.64724135
5541.00   0.63864976
5542.00   0.63078666
5543.00   0.63096642
5544.00   0.64456481
5545.00   0.65910906
5546.00   0.65846002
5547.00   0.64497149
5548.00   0.64673245
5549.00   0.66302586
5550.00   0.66919374
5551.00   0.66347301
5552.00   0.65337431
5553.00   0.64572227
5554.00   0.63689256
5555.00   0.63043302
5556.00   0.62391329
5557.00   0.62111151
5558.00   0.62305456
5559.00   0.62734544
5560.00   0.63088435
5561.00   0.63485175
5562.00   0.63990146
5563.00   0.64544058
5564.00   0.65258157
5565.00   0.66323453
5566.00   0.67383963
5567.00   0.67834991
5568.00   0.67877179
5569.00   0.67739904
5570.00   0.67535770
5571.00   0.66738361
5572.00   0.64811677
5573.00   0.62706208
5574.00   0.62250936
5575.00   0.63479125
5576.00   0.63086462
5577.00   0.61764431
5578.00   0.60462427
5579.00   0.58874565
5580.00   0.57507324
5581.00   0.57889605
5582.00   0.60501617
5583.00   0.60982305
5584.00   0.59968215
5585.00   0.59430993
5586.00   0.59701216
5587.00   0.60332513
5588.00   0.60990536
5589.00   0.62302876
5590.00   0.62395012
5591.00   0.61134255
5592.00   0.60458469
5593.00   0.60846788
5594.00   0.61722982
5595.00   0.62345564
5596.00   0.63023055
5597.00   0.63677561
5598.00   0.64658099
5599.00   0.65083492
5600.00   0.64568007
5601.00   0.63557410
5602.00   0.63039309
5603.00   0.62861365
5604.00   0.62256867
5605.00   0.61084974
5606.00   0.60337013
5607.00   0.60425311
5608.00   0.60939306
5609.00   0.60998392
5610.00   0.60689276
5611.00   0.60823524
5612.00   0.61211699
5613.00   0.61725712
5614.00   0.62465066
5615.00   0.63307363
5616.00   0.63515401
5617.00   0.63483965
5618.00   0.62809908
5619.00   0.60950643
5620.00   0.59603983
5621.00   0.59560084
5622.00   0.60210961
5623.00   0.60216546
5624.00   0.59568739
5625.00   0.59894580
5626.00   0.61392939
5627.00   0.62452799
5628.00   0.62193424
5629.00   0.61227578
5630.00   0.61291468
5631.00   0.62140375
5632.00   0.62539661
5633.00   0.62923825
5634.00   0.62984163
5635.00   0.62374032
5636.00   0.61309576
5637.00   0.61181301
5638.00   0.61937910
5639.00   0.62154257
5640.00   0.61983126
5641.00   0.61880875
5642.00   0.62082410
5643.00   0.62455368
5644.00   0.62802112
5645.00   0.63839114
5646.00   0.63504267
5647.00   0.61348116
5648.00   0.59560788
5649.00   0.59553558
5650.00   0.60615820
5651.00   0.60993427
5652.00   0.61613530
5653.00   0.61471331
5654.00   0.60157400
5655.00   0.59130275
5656.00   0.59534198
5657.00   0.60895026
5658.00   0.61022323
5659.00   0.60367209
5660.00   0.59870267
5661.00   0.59026986
5662.00   0.58591247
5663.00   0.59346342
5664.00   0.61063433
5665.00   0.61628747
5666.00   0.61590761
5667.00   0.61473155
5668.00   0.60874707
5669.00   0.60497648
5670.00   0.61124736
5671.00   0.62588817
5672.00   0.62717795
5673.00   0.61827135
5674.00   0.61186910
5675.00   0.60523754
5676.00   0.60004735
5677.00   0.60016000
5678.00   0.60614920
5679.00   0.59787434
5680.00   0.56903732
5681.00   0.55910301
5682.00   0.57154155
5683.00   0.58725047
5684.00   0.59033424
5685.00   0.58896363
5686.00   0.57749057
5687.00   0.53760797
5688.00   0.52995110
5689.00   0.56394911
5690.00   0.60491234
5691.00   0.61907494
5692.00   0.62082934
5693.00   0.61582237
5694.00   0.59325236
5695.00   0.57978886
5696.00   0.57577008
5697.00   0.57515514
5698.00   0.57322347
5699.00   0.57152921
5700.00   0.57310987
5701.00   0.58114547
5702.00   0.58339167
5703.00   0.57665521
5704.00   0.56907207
5705.00   0.57101572
5706.00   0.58058494
5707.00   0.58432382
5708.00   0.58932817
5709.00   0.58745378
5710.00   0.57476282
5711.00   0.55956322
5712.00   0.55424684
5713.00   0.55701774
5714.00   0.55132347
5715.00   0.53531176
5716.00   0.52938890
5717.00   0.53695482
5718.00   0.55048418
5719.00   0.56138933
5720.00   0.57599932
5721.00   0.58188331
5722.00   0.58007264
5723.00   0.57872003
5724.00   0.57959592
5725.00   0.57942170
5726.00   0.57313776
5727.00   0.55724657
5728.00   0.55502278
5729.00   0.56398189
5730.00   0.57078439
5731.00   0.57470536
5732.00   0.57681751
5733.00   0.57485723
5734.00   0.56594276
5735.00   0.56501931
5736.00   0.56932467
5737.00   0.57375240
5738.00   0.58027697
5739.00   0.58565128
5740.00   0.57877541
5741.00   0.55549496
5742.00   0.54761493
5743.00   0.54720968
5744.00   0.54939389
5745.00   0.55532056
5746.00   0.56300116
5747.00   0.56378996
5748.00   0.55892152
5749.00   0.55586362
5750.00   0.54995602
5751.00   0.54768002
5752.00   0.55213648
5753.00   0.55978155
5754.00   0.56227571
5755.00   0.56564176
5756.00   0.56017876
5757.00   0.54319900
5758.00   0.52960807
5759.00   0.52345818
5760.00   0.52134043
5761.00   0.52143544
5762.00   0.52372843
5763.00   0.53053159
5764.00   0.54863501
5765.00   0.55846620
5766.00   0.55004901
5767.00   0.53216952
5768.00   0.52826542
5769.00   0.53199118
5770.00   0.53576410
5771.00   0.54350162
5772.00   0.55052078
5773.00   0.55613476
5774.00   0.56057692
5775.00   0.55820507
5776.00   0.54749149
5777.00   0.54013801
5778.00   0.52799267
5779.00   0.52392620
5780.00   0.53799814
5781.00   0.56311965
5782.00   0.56733400
5783.00   0.55157477
5784.00   0.55000025
5785.00   0.55986500
5786.00   0.56676883
5787.00   0.56432694
5788.00   0.55638885
5789.00   0.54454112
5790.00   0.51581079
5791.00   0.51003796
5792.00   0.52706027
5793.00   0.54438400
5794.00   0.55043232
5795.00   0.55173403
5796.00   0.55312294
5797.00   0.55173427
5798.00   0.55129272
5799.00   0.55181181
5800.00   0.55129725
5801.00   0.54707927
5802.00   0.54003417
5803.00   0.54360920
5804.00   0.56231958
5805.00   0.56725192
5806.00   0.55806261
5807.00   0.54939699
5808.00   0.55062014
5809.00   0.55717158
5810.00   0.56337529
5811.00   0.58110708
5812.00   0.57935405
5813.00   0.55290413
5814.00   0.52710903
5815.00   0.51962823
5816.00   0.52170283
5817.00   0.53103381
5818.00   0.56015867
5819.00   0.57271141
5820.00   0.56569642
5821.00   0.55974561
5822.00   0.57259440
5823.00   0.59855217
5824.00   0.60891342
5825.00   0.60994792
5826.00   0.61191338
5827.00   0.61523050
5828.00   0.61555231
5829.00   0.60762978
5830.00   0.59101397
5831.00   0.58947337
5832.00   0.59694970
5833.00   0.60791284
5834.00   0.62808770
5835.00   0.64682835
5836.00   0.65114444
5837.00   0.64371908
5838.00   0.64786339
5839.00   0.66158158
5840.00   0.66789883
5841.00   0.66338879
5842.00   0.65920490
5843.00   0.66793531
5844.00   0.68754804
5845.00   0.69537902
5846.00   0.69798934
5847.00   0.69777048
5848.00   0.69084752
5849.00   0.68454450
5850.00   0.69064498
5851.00   0.71082866
5852.00   0.70652020
5853.00   0.67348719
5854.00   0.66063434
5855.00   0.67234457
5856.00   0.69296455
5857.00   0.70717102
5858.00   0.72161812
5859.00   0.73593456
5860.00   0.75833952
5861.00   0.76530260
5862.00   0.75075322
5863.00   0.72842497
5864.00   0.71621335
5865.00   0.70632720
5866.00   0.70002961
5867.00   0.69939554
5868.00   0.69732100
5869.00   0.69276619
5870.00   0.68801820
5871.00   0.68600780
5872.00   0.68801767
5873.00   0.68304354
5874.00   0.66849095
5875.00   0.66149479
5876.00   0.66604060
5877.00   0.67497694
5878.00   0.67830700
5879.00   0.68023753
5880.00   0.68009204
5881.00   0.67431641
5882.00   0.67345995
5883.00   0.67568868
5884.00   0.68412441
5885.00   0.71190786
5886.00   0.78249842
5887.00   0.78387284
5888.00   0.71670204
5889.00   0.67443532
5890.00   0.67730290
5891.00   0.69891489
5892.00   0.70867521
5893.00   0.72793519
5894.00   0.72190243
5895.00   0.67961967
5896.00   0.65996265
5897.00   0.68134618
5898.00   0.72195452
5899.00   0.74544346
5900.00   0.76959372
5901.00   0.78098381
5902.00   0.78143591
5903.00   0.77696437
5904.00   0.76542079
5905.00   0.75015455
5906.00   0.74765939
5907.00   0.75715595
5908.00   0.76024234
5909.00   0.76141411
5910.00   0.76337200
5911.00   0.76953185
5912.00   0.77612650
5913.00   0.76902282
5914.00   0.74556935
5915.00   0.73206806
5916.00   0.72165751
5917.00   0.71245366
5918.00   0.70130944
5919.00   0.69135374
5920.00   0.69728404
5921.00   0.72458529
5922.00   0.73741496
5923.00   0.74289399
5924.00   0.74804258
5925.00   0.75670326
5926.00   0.76594400
5927.00   0.76658541
5928.00   0.75891799
5929.00   0.75286299
5930.00   0.74490660
5931.00   0.73739326
5932.00   0.72975135
5933.00   0.72251594
5934.00   0.72621638
5935.00   0.74774921
5936.00   0.75261545
5937.00   0.74512041
5938.00   0.73569918
5939.00   0.72811574
5940.00   0.72009856
5941.00   0.71666193
5942.00   0.71937168
5943.00   0.71752381
5944.00   0.71097523
5945.00   0.70612556
5946.00   0.70709062
5947.00   0.71172476
5948.00   0.71278250
5949.00   0.71517843
5950.00   0.71135050
5951.00   0.69639051
5952.00   0.68596274
5953.00   0.69359475
5954.00   0.71374321
5955.00   0.70855248
5956.00   0.67571527
5957.00   0.66365212
5958.00   0.66882950
5959.00   0.67682034
5960.00   0.67897516
5961.00   0.67952389
5962.00   0.68264198
5963.00   0.68754840
5964.00   0.69223052
5965.00   0.69953430
5966.00   0.70377928
5967.00   0.69972199
5968.00   0.68915886
5969.00   0.68159497
5970.00   0.67518514
5971.00   0.66570824
5972.00   0.64900768
5973.00   0.63596541
5974.00   0.63727456
5975.00   0.64995509
5976.00   0.65345091
5977.00   0.65182525
5978.00   0.65366989
5979.00   0.65910065
5980.00   0.66507775
5981.00   0.66975892
5982.00   0.67478347
5983.00   0.67412823
5984.00   0.66732818
5985.00   0.66182220
5986.00   0.65754044
5987.00   0.65257412
5988.00   0.64493901
5989.00   0.63432431
5990.00   0.62910575
5991.00   0.62696069
5992.00   0.62662709
5993.00   0.62924284
5994.00   0.63275176
5995.00   0.63460273
5996.00   0.63590437
5997.00   0.63686663
5998.00   0.63736266
5999.00   0.63756639
6000.00   0.63816458
6001.00   0.63775504
6002.00   0.63381839
6003.00   0.62505192
6004.00   0.62473398
6005.00   0.63615185
6006.00   0.63716668
6007.00   0.62330568
6008.00   0.60622495
6009.00   0.59952539
6010.00   0.59663624
6011.00   0.60136831
6012.00   0.62240958
6013.00   0.63106519
6014.00   0.62138098
6015.00   0.60707134
6016.00   0.60616106
6017.00   0.61534154
6018.00   0.61478043
6019.00   0.60666353
6020.00   0.60264367
6021.00   0.60540634
6022.00   0.60958320
6023.00   0.60759252
6024.00   0.60048294
6025.00   0.59725672
6026.00   0.59421492
6027.00   0.59386641
6028.00   0.59906822
6029.00   0.60496455
6030.00   0.60182917
6031.00   0.59199363
6032.00   0.58195889
6033.00   0.56176257
6034.00   0.55362964
6035.00   0.56494445
6036.00   0.58439296
6037.00   0.59258407
6038.00   0.59656680
6039.00   0.59877342
6040.00   0.59610641
6041.00   0.59505469
6042.00   0.59832639
6043.00   0.60219771
6044.00   0.59903091
6045.00   0.58696765
6046.00   0.58372033
6047.00   0.58610159
6048.00   0.58811498
6049.00   0.58814096
6050.00   0.58797896
6051.00   0.59016615
6052.00   0.60043293
6053.00   0.59537554
6054.00   0.57259613
6055.00   0.55749500
6056.00   0.55837065
6057.00   0.56697077
6058.00   0.57031411
6059.00   0.57379603
6060.00   0.57576185
6061.00   0.57698154
6062.00   0.57672566
6063.00   0.57493222
6064.00   0.57159930
6065.00   0.56603372
6066.00   0.55476248
6067.00   0.55014795
6068.00   0.55027884
6069.00   0.55093187
6070.00   0.55066198
6071.00   0.55054665
6072.00   0.55144209
6073.00   0.55318320
6074.00   0.55528015
6075.00   0.55862498
6076.00   0.56127071
6077.00   0.56170368
6078.00   0.56109691
6079.00   0.56444275
6080.00   0.57475555
6081.00   0.57633299
6082.00   0.57095295
6083.00   0.56435210
6084.00   0.55820835
6085.00   0.55152375
6086.00   0.54828340
6087.00   0.54395354
6088.00   0.54857081
6089.00   0.56568849
6090.00   0.58044118
6091.00   0.58447516
6092.00   0.58263069
6093.00   0.58525229
6094.00   0.59198266
6095.00   0.59228230
6096.00   0.58597690
6097.00   0.57934874
6098.00   0.57521427
6099.00   0.57189286
6100.00   0.57249331
6101.00   0.58176517
6102.00   0.58121532
6103.00   0.56768858
6104.00   0.55810153
6105.00   0.56415623
6106.00   0.58038890
6107.00   0.59053433
6108.00   0.60719103
6109.00   0.60840702
6110.00   0.58767664
6111.00   0.57028210
6112.00   0.57566583
6113.00   0.59574813
6114.00   0.60299963
6115.00   0.60585022
6116.00   0.60727674
6117.00   0.60776204
6118.00   0.60497916
6119.00   0.59618545
6120.00   0.58168519
6121.00   0.57299280
6122.00   0.56456798
6123.00   0.56151503
6124.00   0.56364274
6125.00   0.56952405
6126.00   0.57964694
6127.00   0.59569442
6128.00   0.60057348
6129.00   0.59868026
6130.00   0.59400547
6131.00   0.58191067
6132.00   0.57121277
6133.00   0.57204020
6134.00   0.58207422
6135.00   0.58270252
6136.00   0.57831842
6137.00   0.57421941
6138.00   0.56774950
6139.00   0.56310195
6140.00   0.56548369
6141.00   0.57311195
6142.00   0.58198410
6143.00   0.60094744
6144.00   0.60747248
6145.00   0.59933197
6146.00   0.58604705
6147.00   0.57586491
6148.00   0.56276339
6149.00   0.56076020
6150.00   0.56976610
6151.00   0.57662421
6152.00   0.58374774
6153.00   0.58864081
6154.00   0.58574420
6155.00   0.57566082
6156.00   0.56824845
6157.00   0.55703372
6158.00   0.55170345
6159.00   0.55458409
6160.00   0.55998158
6161.00   0.56072855
6162.00   0.55925065
6163.00   0.55866808
6164.00   0.55693972
6165.00   0.55710149
6166.00   0.56041181
6167.00   0.56430060
6168.00   0.56470948
6169.00   0.56154639
6170.00   0.56304163
6171.00   0.56970984
6172.00   0.57267618
6173.00   0.56869960
6174.00   0.56386584
6175.00   0.56827366
6176.00   0.58259034
6177.00   0.58616036
6178.00   0.58213359
6179.00   0.57980788
6180.00   0.57997006
6181.00   0.58124709
6182.00   0.58355421
6183.00   0.58780634
6184.00   0.59044021
6185.00   0.59249455
6186.00   0.59414423
6187.00   0.59492373
6188.00   0.59557295
6189.00   0.59832656
6190.00   0.60751784
6191.00   0.60321146
6192.00   0.58171505
6193.00   0.57000905
6194.00   0.57635409
6195.00   0.59007394
6196.00   0.59336847
6197.00   0.59397572
6198.00   0.58888894
6199.00   0.57064360
6200.00   0.56199443
6201.00   0.57345188
6202.00   0.59241623
6203.00   0.59030294
6204.00   0.56863719
6205.00   0.55993456
6206.00   0.55084509
6207.00   0.55089813
6208.00   0.56891692
6209.00   0.59471893
6210.00   0.59549636
6211.00   0.57007289
6212.00   0.56357288
6213.00   0.56567281
6214.00   0.56833625
6215.00   0.56795436
6216.00   0.56780416
6217.00   0.57549047
6218.00   0.59910208
6219.00   0.60254788
6220.00   0.59308678
6221.00   0.57840139
6222.00   0.55506724
6223.00   0.52717918
6224.00   0.52845573
6225.00   0.56528699
6226.00   0.57625061
6227.00   0.57180905
6228.00   0.56751704
6229.00   0.56951529
6230.00   0.57365751
6231.00   0.57587600
6232.00   0.57908326
6233.00   0.57858652
6234.00   0.57444680
6235.00   0.56952196
6236.00   0.56493735
6237.00   0.56000173
6238.00   0.55510885
6239.00   0.54760945
6240.00   0.54558754
6241.00   0.54955971
6242.00   0.55344605
6243.00   0.55350453
6244.00   0.55183572
6245.00   0.55502570
6246.00   0.56457716
6247.00   0.56828469
6248.00   0.56877935
6249.00   0.56635445
6250.00   0.56089354
6251.00   0.55244499
6252.00   0.54148585
6253.00   0.51671576
6254.00   0.51336497
6255.00   0.53493702
6256.00   0.55555022
6257.00   0.55946314
6258.00   0.55483389
6259.00   0.54628491
6260.00   0.52351654
6261.00   0.51383013
6262.00   0.51649761
6263.00   0.52092129
6264.00   0.51964915
6265.00   0.51580608
6266.00   0.51866299
6267.00   0.53048378
6268.00   0.53444463
6269.00   0.53161037
6270.00   0.52632219
6271.00   0.52091116
6272.00   0.51385158
6273.00   0.50894642
6274.00   0.50468278
6275.00   0.50177687
6276.00   0.49850887
6277.00   0.49843979
6278.00   0.50731003
6279.00   0.52597368
6280.00   0.52325827
6281.00   0.49961108
6282.00   0.48527813
6283.00   0.47746661
6284.00   0.47296748
6285.00   0.47091979
6286.00   0.47206160
6287.00   0.47390479
6288.00   0.47674036
6289.00   0.48216307
6290.00   0.49302107
6291.00   0.50292259
6292.00   0.50405991
6293.00   0.49778551
6294.00   0.49847150
6295.00   0.50013113
6296.00   0.50663060
6297.00   0.52663708
6298.00   0.54168969
6299.00   0.52615100
6300.00   0.48122573
6301.00   0.46650866
6302.00   0.46750849
6303.00   0.47015649
6304.00   0.47825491
6305.00   0.48663926
6306.00   0.48515570
6307.00   0.47381812
6308.00   0.47600532
6309.00   0.48974702
6310.00   0.49895504
6311.00   0.50313395
6312.00   0.50515693
6313.00   0.50644207
6314.00   0.50480932
6315.00   0.50799334
6316.00   0.51817620
6317.00   0.52198577
6318.00   0.51614159
6319.00   0.50764990
6320.00   0.50643778
6321.00   0.51163918
6322.00   0.50843793
6323.00   0.49369234
6324.00   0.48963508
6325.00   0.50153893
6326.00   0.51941431
6327.00   0.52937818
6328.00   0.53754652
6329.00   0.54197425
6330.00   0.54196477
6331.00   0.54118663
6332.00   0.54046410
6333.00   0.53843725
6334.00   0.53283614
6335.00   0.52000093
6336.00   0.51819992
6337.00   0.52752572
6338.00   0.53203863
6339.00   0.52697289
6340.00   0.51921821
6341.00   0.52025628
6342.00   0.52848840
6343.00   0.53287840
6344.00   0.53705215
6345.00   0.54032278
6346.00   0.54325360
6347.00   0.54497939
6348.00   0.54242474
6349.00   0.53114152
6350.00   0.53139621
6351.00   0.54018682
6352.00   0.54899865
6353.00   0.55883187
6354.00   0.56761658
6355.00   0.56277972
6356.00   0.53684503
6357.00   0.53187895
6358.00   0.53565347
6359.00   0.54705000
6360.00   0.57295263
6361.00   0.60475820
6362.00   0.60653502
6363.00   0.58068550
6364.00   0.56412643
6365.00   0.53787571
6366.00   0.52335179
6367.00   0.53057450
6368.00   0.55063260
6369.00   0.56216973
6370.00   0.57711351
6371.00   0.58216953
6372.00   0.57810211
6373.00   0.57258904
6374.00   0.56772590
6375.00   0.56217235
6376.00   0.55835730
6377.00   0.55480164
6378.00   0.55344564
6379.00   0.55311030
6380.00   0.55548233
6381.00   0.56311715
6382.00   0.57405227
6383.00   0.57614177
6384.00   0.56834239
6385.00   0.56823826
6386.00   0.57362419
6387.00   0.57890439
6388.00   0.58313304
6389.00   0.58685058
6390.00   0.58066422
6391.00   0.55861807
6392.00   0.55061543
6393.00   0.55185407
6394.00   0.55666089
6395.00   0.56339741
6396.00   0.57311809
6397.00   0.57985181
6398.00   0.58634847
6399.00   0.59053040
6400.00   0.59441429
6401.00   0.59424716
6402.00   0.58643204
6403.00   0.57249308
6404.00   0.56435168
6405.00   0.55509424
6406.00   0.55348235
6407.00   0.56205022
6408.00   0.57051820
6409.00   0.57210809
6410.00   0.57016140
6411.00   0.56891763
6412.00   0.56450832
6413.00   0.56448382
6414.00   0.57168943
6415.00   0.57621038
6416.00   0.56878716
6417.00   0.55218601
6418.00   0.55080903
6419.00   0.56079507
6420.00   0.56843489
6421.00   0.57989210
6422.00   0.58660269
6423.00   0.57821858
6424.00   0.55664736
6425.00   0.55376273
6426.00   0.56422102
6427.00   0.57156664
6428.00   0.57971942
6429.00   0.58569276
6430.00   0.58547020
6431.00   0.58039033
6432.00   0.57532316
6433.00   0.56490767
6434.00   0.56051505
6435.00   0.56259614
6436.00   0.56681418
6437.00   0.57019103
6438.00   0.57514799
6439.00   0.57419997
6440.00   0.56497413
6441.00   0.56201339
6442.00   0.56578863
6443.00   0.57170069
6444.00   0.57611912
6445.00   0.58117205
6446.00   0.58376533
6447.00   0.58725148
6448.00   0.58465219
6449.00   0.57160258
6450.00   0.55834091
6451.00   0.55809438
6452.00   0.56871057
6453.00   0.56899220
6454.00   0.56107432
6455.00   0.55880207
6456.00   0.56491148
6457.00   0.57189435
6458.00   0.57056499
6459.00   0.56256825
6460.00   0.56005311
6461.00   0.56019342
6462.00   0.55991626
6463.00   0.55965042
6464.00   0.55893177
6465.00   0.55658245
6466.00   0.55355388
6467.00   0.54765624
6468.00   0.53458959
6469.00   0.52872759
6470.00   0.53372294
6471.00   0.54198796
6472.00   0.54267961
6473.00   0.53735769
6474.00   0.53915399
6475.00   0.54928571
6476.00   0.55257386
6477.00   0.54374766
6478.00   0.53233171
6479.00   0.53407943
6480.00   0.54813689
6481.00   0.55123293
6482.00   0.55043149
6483.00   0.54620671
6484.00   0.53344411
6485.00   0.52051151
6486.00   0.52776718
6487.00   0.56000215
6488.00   0.56616777
6489.00   0.55593455
6490.00   0.54610342
6491.00   0.53617525
6492.00   0.52759439
6493.00   0.53154802
6494.00   0.55284244
6495.00   0.55706382
6496.00   0.55212486
6497.00   0.54513395
6498.00   0.53545380
6499.00   0.52448052
6500.00   0.52012014
6501.00   0.51932210
6502.00   0.52208936
6503.00   0.53213644
6504.00   0.53942668
6505.00   0.54101980
6506.00   0.53994399
6507.00   0.54038882
6508.00   0.54196352
6509.00   0.54058671
6510.00   0.53680682
6511.00   0.53242534
6512.00   0.52637124
6513.00   0.52011889
6514.00   0.52140474
6515.00   0.52916008
6516.00   0.53731102
6517.00   0.55248684
6518.00   0.56193429
6519.00   0.55956692
6520.00   0.55067724
6521.00   0.54825115
6522.00   0.54931360
6523.00   0.54787505
6524.00   0.54450375
6525.00   0.54202867
6526.00   0.54162902
6527.00   0.54244018
6528.00   0.54306501
6529.00   0.54102689
6530.00   0.54608250
6531.00   0.56047446
6532.00   0.57196343
6533.00   0.57451361
6534.00   0.57216167
6535.00   0.57321936
6536.00   0.57815021
6537.00   0.57577729
6538.00   0.56223691
6539.00   0.55414248
6540.00   0.56198263
6541.00   0.57943112
6542.00   0.58442247
6543.00   0.58247751
6544.00   0.58100802
6545.00   0.57786083
6546.00   0.57404929
6547.00   0.56915259
6548.00   0.56323564
6549.00   0.56437975
6550.00   0.57813537
6551.00   0.57782787
6552.00   0.56135780
6553.00   0.54784960
6554.00   0.54975158
6555.00   0.56094217
6556.00   0.56509310
6557.00   0.56842607
6558.00   0.56916094
6559.00   0.56943196
6560.00   0.56506455
6561.00   0.55048287
6562.00   0.52695489
6563.00   0.52050638
6564.00   0.52711093
6565.00   0.53150123
6566.00   0.53724295
6567.00   0.54270148
6568.00   0.54442179
6569.00   0.54268694
6570.00   0.55490083
6571.00   0.58707517
6572.00   0.60237557
6573.00   0.60446620
6574.00   0.59920287
6575.00   0.58717138
6576.00   0.56516898
6577.00   0.56114960
6578.00   0.57333070
6579.00   0.57847297
6580.00   0.57952356
6581.00   0.57779133
6582.00   0.57224458
6583.00   0.56207907
6584.00   0.55778199
6585.00   0.55694628
6586.00   0.55632263
6587.00   0.55388319
6588.00   0.55489343
6589.00   0.56548268
6590.00   0.58479792
6591.00   0.59889269
6592.00   0.61709505
6593.00   0.62515104
6594.00   0.62394261
6595.00   0.61505252
6596.00   0.59739202
6597.00   0.56747919
6598.00   0.55013305
6599.00   0.53728563
6600.00   0.52893525
6601.00   0.52607656
6602.00   0.52671063
6603.00   0.52835524
6604.00   0.53236324
6605.00   0.53725970
6606.00   0.54683483
6607.00   0.55134839
6608.00   0.54865360
6609.00   0.54435074
6610.00   0.54522645
6611.00   0.54906321
6612.00   0.55226159
6613.00   0.55725062
6614.00   0.56030816
6615.00   0.56188613
6616.00   0.56152445
6617.00   0.55733657
6618.00   0.54761690
6619.00   0.54424500
6620.00   0.54284531
6621.00   0.54520512
6622.00   0.55407900
6623.00   0.56442791
6624.00   0.56721103
6625.00   0.56430513
6626.00   0.56390041
6627.00   0.56255835
6628.00   0.56276107
6629.00   0.56563878
6630.00   0.56920922
6631.00   0.57002878
6632.00   0.56908143
6633.00   0.56806505
6634.00   0.56563932
6635.00   0.56408495
6636.00   0.56231552
6637.00   0.56212109
6638.00   0.56892598
6639.00   0.58633208
6640.00   0.59182346
6641.00   0.59077835
6642.00   0.58747470
6643.00   0.57886535
6644.00   0.56978381
6645.00   0.57558995
6646.00   0.60038012
6647.00   0.60672909
6648.00   0.60207546
6649.00   0.59726226
6650.00   0.59302700
6651.00   0.58910358
6652.00   0.59067738
6653.00   0.60225511
6654.00   0.60090637
6655.00   0.58727354
6656.00   0.57829452
6657.00   0.57880443
6658.00   0.58402246
6659.00   0.58806729
6660.00   0.59802467
6661.00   0.59752053
6662.00   0.58745074
6663.00   0.57846475
6664.00   0.57300019
6665.00   0.56923735
6666.00   0.56865531
6667.00   0.57083946
6668.00   0.57533365
6669.00   0.58572638
6670.00   0.59297550
6671.00   0.59387499
6672.00   0.59090811
6673.00   0.58675283
6674.00   0.57713318
6675.00   0.57287914
6676.00   0.57147717
6677.00   0.57172948
6678.00   0.57464159
6679.00   0.57921457
6680.00   0.57701850
6681.00   0.56502026
6682.00   0.56310278
6683.00   0.56795734
6684.00   0.57481551
6685.00   0.58237827
6686.00   0.59141111
6687.00   0.59864789
6688.00   0.60185307
6689.00   0.61204255
6690.00   0.63245767
6691.00   0.64827013
6692.00   0.65062374
6693.00   0.64474082
6694.00   0.64591330
6695.00   0.65237111
6696.00   0.65243840
6697.00   0.64698219
6698.00   0.64049542
6699.00   0.63467300
6700.00   0.62845373
6701.00   0.62558663
6702.00   0.62501442
6703.00   0.62593096
6704.00   0.63192159
6705.00   0.63481539
6706.00   0.62698770
6707.00   0.61145926
6708.00   0.61203343
6709.00   0.62723893
6710.00   0.63581270
6711.00   0.64356661
6712.00   0.64686036
6713.00   0.64174080
6714.00   0.62969077
6715.00   0.61926699
6716.00   0.60114467
6717.00   0.59527493
6718.00   0.60265905
6719.00   0.61258394
6720.00   0.61850178
6721.00   0.62435019
6722.00   0.62291384
6723.00   0.60717070
6724.00   0.60633141
6725.00   0.62201095
6726.00   0.63967997
6727.00   0.64941686
6728.00   0.65704757
6729.00   0.65342963
6730.00   0.63178217
6731.00   0.62218392
6732.00   0.62572682
6733.00   0.63023937
6734.00   0.62522918
6735.00   0.61402655
6736.00   0.60947055
6737.00   0.60800803
6738.00   0.60752970
6739.00   0.61075413
6740.00   0.61248958
6741.00   0.60619146
6742.00   0.59287673
6743.00   0.58623260
6744.00   0.57871497
6745.00   0.57948619
6746.00   0.59381771
6747.00   0.60872722
6748.00   0.60888231
6749.00   0.59834075
6750.00   0.59432137
6751.00   0.59390485
6752.00   0.58918464
6753.00   0.57851040
6754.00   0.56663013
6755.00   0.55807275
6756.00   0.54840088
6757.00   0.55119914
6758.00   0.57131582
6759.00   0.58173937
6760.00   0.57930124
6761.00   0.57384598
6762.00   0.57628161
6763.00   0.58442432
6764.00   0.58569145
6765.00   0.58357841
6766.00   0.57956320
6767.00   0.57114518
6768.00   0.56281734
6769.00   0.56264484
6770.00   0.56926823
6771.00   0.57322657
6772.00   0.58074766
6773.00   0.58253533
6774.00   0.57551807
6775.00   0.56563783
6776.00   0.56180257
6777.00   0.56033587
6778.00   0.56131327
6779.00   0.56907427
6780.00   0.57126504
6781.00   0.56514686
6782.00   0.55552322
6783.00   0.54877645
6784.00   0.54031378
6785.00   0.53841108
6786.00   0.54322666
6787.00   0.54714990
6788.00   0.54920846
6789.00   0.55079782
6790.00   0.55262589
6791.00   0.55552673
6792.00   0.55518925
6793.00   0.55250448
6794.00   0.54866612
6795.00   0.54306239
6796.00   0.53667384
6797.00   0.53284216
6798.00   0.53224224
6799.00   0.52762157
6800.00   0.51651609
6801.00   0.51165062
6802.00   0.51772684
6803.00   0.52914560
6804.00   0.53513610
6805.00   0.54318547
6806.00   0.54155803
6807.00   0.52920210
6808.00   0.51845497
6809.00   0.51080734
6810.00   0.50549805
6811.00   0.50853658
6812.00   0.52639294
6813.00   0.52985626
6814.00   0.52605075
6815.00   0.51924413
6816.00   0.50799513
6817.00   0.49440622
6818.00   0.49200234
6819.00   0.49910977
6820.00   0.50459409
6821.00   0.51410151
6822.00   0.52121019
6823.00   0.52357596
6824.00   0.52297562
6825.00   0.52126896
6826.00   0.51457900
6827.00   0.51340139
6828.00   0.51623273
6829.00   0.51959485
6830.00   0.52288145
6831.00   0.52636844
6832.00   0.52631325
6833.00   0.52447271
6834.00   0.51953894
6835.00   0.50859535
6836.00   0.49985546
6837.00   0.49683389
6838.00   0.49732497
6839.00   0.50056350
6840.00   0.51183039
6841.00   0.51495981
6842.00   0.51152843
6843.00   0.50740010
6844.00   0.50532585
6845.00   0.50368899
6846.00   0.50131154
6847.00   0.49744326
6848.00   0.49581537
6849.00   0.49606079
6850.00   0.49699527
6851.00   0.49830511
6852.00   0.50022984
6853.00   0.50069362
6854.00   0.49902755
6855.00   0.49964854
6856.00   0.50324863
6857.00   0.50592905
6858.00   0.50442916
6859.00   0.50005794
6860.00   0.50156641
6861.00   0.51322341
6862.00   0.51213938
6863.00   0.49664050
6864.00   0.48118132
6865.00   0.47415552
6866.00   0.47068951
6867.00   0.47798881
6868.00   0.50418305
6869.00   0.51633096
6870.00   0.51862180
6871.00   0.51506883
6872.00   0.50497055
6873.00   0.48628768
6874.00   0.48491636
6875.00   0.50296867
6876.00   0.50701576
6877.00   0.49536166
6878.00   0.48395866
6879.00   0.48637027
6880.00   0.49820733
6881.00   0.49995214
6882.00   0.49457920
6883.00   0.49289104
6884.00   0.49508220
6885.00   0.49731681
6886.00   0.49611816
6887.00   0.49222434
6888.00   0.49249232
6889.00   0.49701637
6890.00   0.49866948
6891.00   0.49706203
6892.00   0.49492887
6893.00   0.49457300
6894.00   0.49487221
6895.00   0.49628446
6896.00   0.49901700
6897.00   0.50200260
6898.00   0.50705028
6899.00   0.51068747
6900.00   0.50859469
6901.00   0.50254852
6902.00   0.49344960
6903.00   0.47152066
6904.00   0.46481597
6905.00   0.47860917
6906.00   0.49753797
6907.00   0.50479966
6908.00   0.50832903
6909.00   0.50478601
6910.00   0.48871905
6911.00   0.47920954
6912.00   0.47795933
6913.00   0.47923794
6914.00   0.47704229
6915.00   0.47196731
6916.00   0.47379884
6917.00   0.48204985
6918.00   0.48913559
6919.00   0.49681753
6920.00   0.50251383
6921.00   0.49995700
6922.00   0.48937416
6923.00   0.48179430
6924.00   0.47008973
6925.00   0.46471187
6926.00   0.46751133
6927.00   0.47476211
6928.00   0.48254481
6929.00   0.49756476
6930.00   0.49783292
6931.00   0.48282224
6932.00   0.47339728
6933.00   0.47287264
6934.00   0.47555763
6935.00   0.47537249
6936.00   0.47439209
6937.00   0.47410572
6938.00   0.47503251
6939.00   0.47443977
6940.00   0.47093230
6941.00   0.46664086
6942.00   0.46604016
6943.00   0.47081852
6944.00   0.46775457
6945.00   0.45431435
6946.00   0.44863293
6947.00   0.45783955
6948.00   0.47239918
6949.00   0.47337234
6950.00   0.46176258
6951.00   0.46064287
6952.00   0.46641320
6953.00   0.46981052
6954.00   0.46897867
6955.00   0.46572778
6956.00   0.46047255
6957.00   0.44625250
6958.00   0.44662637
6959.00   0.46120688
6960.00   0.47202188
6961.00   0.47399503
6962.00   0.47180325
6963.00   0.47017077
6964.00   0.46317321
6965.00   0.46464452
6966.00   0.47524831
6967.00   0.48240286
6968.00   0.48101133
6969.00   0.47558448
6970.00   0.47500667
6971.00   0.47935405
6972.00   0.47746566
6973.00   0.46796817
6974.00   0.46265244
6975.00   0.46706408
6976.00   0.47677463
6977.00   0.48141792
6978.00   0.48521325
6979.00   0.48676705
6980.00   0.48479342
6981.00   0.48354343
6982.00   0.48617405
6983.00   0.49031466
6984.00   0.48600984
6985.00   0.47024447
6986.00   0.46451518
6987.00   0.46516114
6988.00   0.46757412
6989.00   0.47092363
6990.00   0.47566658
6991.00   0.47526255
6992.00   0.46653318
6993.00   0.46723914
6994.00   0.47527307
6995.00   0.48526981
6996.00   0.49585474
6997.00   0.50793022
6998.00   0.51398790
6999.00   0.51500201
7000.00   0.51630890
7001.00   0.51556897
7002.00   0.51553339
7003.00   0.51877397
7004.00   0.52412415
7005.00   0.52375227
7006.00   0.51753110
7007.00   0.51449144
7008.00   0.51234829
7009.00   0.51202166
7010.00   0.51503897
7011.00   0.52094662
7012.00   0.52319044
7013.00   0.52296507
7014.00   0.52359664
7015.00   0.52324593
7016.00   0.52469087
7017.00   0.53102237
7018.00   0.54142988
7019.00   0.54565322
7020.00   0.54473203
7021.00   0.54628164
7022.00   0.54907143
7023.00   0.55283153
7024.00   0.55764347
7025.00   0.56343418
7026.00   0.57054269
7027.00   0.58116961
7028.00   0.58819574
7029.00   0.59474021
7030.00   0.59640610
7031.00   0.58657271
7032.00   0.56510067
7033.00   0.56077081
7034.00   0.57075083
7035.00   0.57447034
7036.00   0.57246691
7037.00   0.56988478
7038.00   0.57035130
7039.00   0.57220232
7040.00   0.57519549
7041.00   0.58243495
7042.00   0.58480453
7043.00   0.58111429
7044.00   0.57622451
7045.00   0.57506019
7046.00   0.57631379
7047.00   0.57386523
7048.00   0.56864178
7049.00   0.56383657
7050.00   0.55808657
7051.00   0.55349195
7052.00   0.55299461
7053.00   0.55536795
7054.00   0.56014514
7055.00   0.57203919
7056.00   0.57758588
7057.00   0.57451272
7058.00   0.56952888
7059.00   0.57053000
7060.00   0.57600814
7061.00   0.57573330
7062.00   0.57232696
7063.00   0.56769717
7064.00   0.55993056
7065.00   0.55242842
7066.00   0.55103862
7067.00   0.55471390
7068.00   0.55641615
7069.00   0.55852705
7070.00   0.56061500
7071.00   0.56186837
7072.00   0.56380010
7073.00   0.56922704
7074.00   0.57875246
7075.00   0.58429849
7076.00   0.58940142
7077.00   0.59121495
7078.00   0.58666933
7079.00   0.58121747
7080.00   0.58517462
7081.00   0.59731728
7082.00   0.60495228
7083.00   0.61434585
7084.00   0.61897856
7085.00   0.61612535
7086.00   0.61029613
7087.00   0.60977066
7088.00   0.61463672
7089.00   0.61127067
7090.00   0.59901190
7091.00   0.59139913
7092.00   0.59235007
7093.00   0.59619939
7094.00   0.59358686
7095.00   0.58400559
7096.00   0.58332229
7097.00   0.58958334
7098.00   0.59482241
7099.00   0.59855449
7100.00   0.60099465
7101.00   0.59875900
7102.00   0.59010524
7103.00   0.58601534
7104.00   0.58275133
7105.00   0.58141685
7106.00   0.58306849
7107.00   0.58636838
7108.00   0.58743858
7109.00   0.58960986
7110.00   0.58652157
7111.00   0.57364994
7112.00   0.56818938
7113.00   0.57719868
7114.00   0.59362936
7115.00   0.60256892
7116.00   0.61135823
7117.00   0.61419332
7118.00   0.60999644
7119.00   0.60609549
7120.00   0.60520834
7121.00   0.60505980
7122.00   0.60210568
7123.00   0.59844422
7124.00   0.59147775
7125.00   0.57896453
7126.00   0.56860429
7127.00   0.56300598
7128.00   0.56033880
7129.00   0.56017369
7130.00   0.56759238
7131.00   0.56646734
7132.00   0.55710316
7133.00   0.54970020
7134.00   0.54916018
7135.00   0.55212510
7136.00   0.55160958
7137.00   0.54616159
7138.00   0.54866409
7139.00   0.56125355
7140.00   0.57041383
7141.00   0.56868815
7142.00   0.56068295
7143.00   0.55791366
7144.00   0.55935389
7145.00   0.55512547
7146.00   0.54303098
7147.00   0.53426784
7148.00   0.53692895
7149.00   0.54666638
7150.00   0.54340893
7151.00   0.52637887
7152.00   0.52054518
7153.00   0.52480298
7154.00   0.52838594
7155.00   0.52473009
7156.00   0.51715767
7157.00   0.51373792
7158.00   0.51206797
7159.00   0.51088500
7160.00   0.51120657
7161.00   0.51124305
7162.00   0.50942636
7163.00   0.50637293
7164.00   0.50570917
7165.00   0.50641137
7166.00   0.50778639
7167.00   0.51058286
7168.00   0.51337296
7169.00   0.51509243
7170.00   0.51626742
7171.00   0.51712328
7172.00   0.52127147
7173.00   0.51728022
7174.00   0.49854973
7175.00   0.48451528
7176.00   0.49424046
7177.00   0.52278703
7178.00   0.52536666
7179.00   0.50743580
7180.00   0.49843249
7181.00   0.48934904
#7182.00   0.48991305
#7183.00   0.50069481
#7184.00   0.50699300
#7185.00   0.62965673
#7186.00   0.89531612
#7187.00   1.10093808
#7188.00   1.33078575
#7189.00   1.46403992
#7190.00   1.33414519
#7191.00   0.95926601
#7192.00   0.76890463
#7193.00   0.61655533
#7194.00   0.51778573
#7195.00   0.48976597
7196.00   0.49274459
7197.00   0.48431352
7198.00   0.48517758
7199.00   0.48576522
7200.00   0.49226853
7201.00   0.49553707
7202.00   0.49615195
7203.00   0.49479252
7204.00   0.49057439
7205.00   0.48171562
7206.00   0.48072430
7207.00   0.48662314
7208.00   0.49040604
7209.00   0.49256593
7210.00   0.49355212
7211.00   0.49246481
7212.00   0.48863557
7213.00   0.48760974
7214.00   0.48785788
7215.00   0.48867345
7216.00   0.49065512
7217.00   0.49275455
7218.00   0.49307317
7219.00   0.49177784
7220.00   0.49193946
7221.00   0.49392399
7222.00   0.49387828
7223.00   0.49012452
7224.00   0.48596415
7225.00   0.48667303
7226.00   0.49167937
7227.00   0.49373993
7228.00   0.49664819
7229.00   0.49607483
7230.00   0.48871538
7231.00   0.48039955
7232.00   0.48158211
7233.00   0.48715365
7234.00   0.50073844
7235.00   0.53201437
7236.00   0.55060959
7237.00   0.55095088
7238.00   0.54195315
7239.00   0.53351235
7240.00   0.51579171
7241.00   0.51210248
7242.00   0.52348727
7243.00   0.52711695
7244.00   0.51696265
7245.00   0.50142395
7246.00   0.49294627
7247.00   0.48325703
7248.00   0.48506635
7249.00   0.49971500
7250.00   0.51289648
7251.00   0.52338248
7252.00   0.53198683
7253.00   0.53374279
7254.00   0.52790308
7255.00   0.52396160
7256.00   0.51804334
7257.00   0.51285189
7258.00   0.50855005
7259.00   0.50515711
7260.00   0.50452298
7261.00   0.50855291
7262.00   0.50837213
7263.00   0.50612420
7264.00   0.50319576
7265.00   0.49989137
7266.00   0.49597943
7267.00   0.49164802
7268.00   0.48310634
7269.00   0.48272783
7270.00   0.48919818
7271.00   0.49650395
7272.00   0.50478292
7273.00   0.51328963
7274.00   0.51166630
7275.00   0.49458671
7276.00   0.49222001
7277.00   0.50081581
7278.00   0.50839353
7279.00   0.51056272
7280.00   0.51043254
7281.00   0.51046282
7282.00   0.51244122
7283.00   0.50759590
7284.00   0.49183565
7285.00   0.48144850
7286.00   0.48449013
7287.00   0.49556044
7288.00   0.50351888
7289.00   0.51645869
7290.00   0.52112907
7291.00   0.51867300
7292.00   0.51450604
7293.00   0.51028472
7294.00   0.50500840
7295.00   0.50323588
7296.00   0.50780004
7297.00   0.50440705
7298.00   0.49044061
7299.00   0.48055950
7300.00   0.48339927
7301.00   0.49422431
7302.00   0.50253785
7303.00   0.51659703
7304.00   0.52183652
7305.00   0.52116835
7306.00   0.51528639
7307.00   0.49976397
7308.00   0.47539952
7309.00   0.48036909
7310.00   0.51845992
7311.00   0.53601444
7312.00   0.54255980
7313.00   0.54142439
7314.00   0.53173047
7315.00   0.51301992
7316.00   0.49975637
7317.00   0.48128814
7318.00   0.47540841
7319.00   0.48463467
7320.00   0.49547002
7321.00   0.49812013
7322.00   0.49704510
7323.00   0.49835086
7324.00   0.49458426
7325.00   0.50240326
7326.00   0.52839184
7327.00   0.55132186
7328.00   0.55387145
7329.00   0.54364705
7330.00   0.52929294
7331.00   0.49687138
7332.00   0.48020512
7333.00   0.47731248
7334.00   0.48119044
7335.00   0.48835817
7336.00   0.50185454
7337.00   0.51045460
7338.00   0.52437723
7339.00   0.52392256
7340.00   0.50258130
7341.00   0.47994199
7342.00   0.47652858
7343.00   0.48685139
7344.00   0.48263329
7345.00   0.46536160
7346.00   0.45845065
7347.00   0.46241540
7348.00   0.47055757
7349.00   0.47831282
7350.00   0.48996797
7351.00   0.49156088
7352.00   0.48489937
7353.00   0.47809970
7354.00   0.46589684
7355.00   0.45730796
7356.00   0.46743590
7357.00   0.49813816
7358.00   0.50140679
7359.00   0.48373094
7360.00   0.47147110
7361.00   0.46223208
7362.00   0.45676145
7363.00   0.46075940
7364.00   0.47499406
7365.00   0.48285982
7366.00   0.49674484
7367.00   0.49604058
7368.00   0.47236517
7369.00   0.44352970
7370.00   0.43496862
7371.00   0.43844023
7372.00   0.44222096
7373.00   0.45677128
7374.00   0.46268302
7375.00   0.45476347
7376.00   0.44351608
7377.00   0.44425327
7378.00   0.45458588
7379.00   0.45711339
7380.00   0.45521331
7381.00   0.45476463
7382.00   0.45731875
7383.00   0.46009368
7384.00   0.45886853
7385.00   0.45421761
7386.00   0.45085084
7387.00   0.44499010
7388.00   0.44313145
7389.00   0.44742912
7390.00   0.45448354
7391.00   0.45867214
7392.00   0.46377590
7393.00   0.46374461
7394.00   0.45695409
7395.00   0.45305303
7396.00   0.45378205
7397.00   0.45692664
7398.00   0.46086606
7399.00   0.47051838
7400.00   0.46998906
7401.00   0.45857292
7402.00   0.45143676
7403.00   0.45359430
7404.00   0.45900685
7405.00   0.45687893
7406.00   0.44583488
7407.00   0.44539493
7408.00   0.45467967
7409.00   0.46015939
7410.00   0.45696840
7411.00   0.45025247
7412.00   0.44958451
7413.00   0.45459360
7414.00   0.45429763
7415.00   0.44935024
7416.00   0.44675761
7417.00   0.44955605
7418.00   0.45484224
7419.00   0.45614237
7420.00   0.45269296
7421.00   0.45505315
7422.00   0.46661133
7423.00   0.47052231
7424.00   0.45633510
7425.00   0.43341908
7426.00   0.43202382
7427.00   0.45079973
7428.00   0.45753455
7429.00   0.45843795
7430.00   0.46035972
7431.00   0.46794981
7432.00   0.47751489
7433.00   0.47465640
7434.00   0.45489636
7435.00   0.44991276
7436.00   0.45479620
7437.00   0.46100608
7438.00   0.46739161
7439.00   0.47444183
7440.00   0.46843502
7441.00   0.44327259
7442.00   0.43459356
7443.00   0.43718553
7444.00   0.44211066
7445.00   0.44563884
7446.00   0.45000157
7447.00   0.45513868
7448.00   0.46718901
7449.00   0.46654084
7450.00   0.44908440
7451.00   0.43598711
7452.00   0.44203511
7453.00   0.45962122
7454.00   0.45721790
7455.00   0.43018618
7456.00   0.42829853
7457.00   0.45296207
7458.00   0.47496012
7459.00   0.47618097
7460.00   0.46570608
7461.00   0.46011588
7462.00   0.44905299
7463.00   0.44707337
7464.00   0.45527977
7465.00   0.46422654
7466.00   0.46699193
7467.00   0.46651423
7468.00   0.47286084
7469.00   0.49037802
7470.00   0.49478355
7471.00   0.48513466
7472.00   0.47386238
7473.00   0.46937779
7474.00   0.46750313
7475.00   0.46750978
7476.00   0.47368154
7477.00   0.47355065
7478.00   0.46605405
7479.00   0.45824441
7480.00   0.45585778
7481.00   0.45666921
7482.00   0.45535168
7483.00   0.45421597
7484.00   0.45164579
7485.00   0.44542795
7486.00   0.44092709
7487.00   0.44401413
7488.00   0.45348004
7489.00   0.45694435
7490.00   0.45717552
7491.00   0.45820189
7492.00   0.45825514
7493.00   0.45997345
7494.00   0.46789697
7495.00   0.48302022
7496.00   0.48411343
7497.00   0.47309560
7498.00   0.46506479
7499.00   0.45866203
7500.00   0.45320156
7501.00   0.44991657
7502.00   0.44970503
7503.00   0.44367239
7504.00   0.42732421
7505.00   0.42254141
7506.00   0.43310797
7507.00   0.44742182
7508.00   0.45319080
7509.00   0.45643544
7510.00   0.45361519
7511.00   0.44086370
7512.00   0.43285537
7513.00   0.43018830
7514.00   0.42966413
7515.00   0.42871892
7516.00   0.42797887
7517.00   0.42983621
7518.00   0.43122295
7519.00   0.43882671
7520.00   0.45993567
7521.00   0.48039585
7522.00   0.47633642
7523.00   0.44775093
7524.00   0.44161138
7525.00   0.44839841
7526.00   0.45292935
7527.00   0.45588499
7528.00   0.45687556
7529.00   0.45103052
7530.00   0.43587002
7531.00   0.43098921
7532.00   0.43177843
7533.00   0.43394676
7534.00   0.43778887
7535.00   0.44287091
7536.00   0.44720897
7537.00   0.45327145
7538.00   0.45421347
7539.00   0.45282343
7540.00   0.44723260
7541.00   0.43250963
7542.00   0.41651258
7543.00   0.41807514
7544.00   0.43824697
7545.00   0.44406274
7546.00   0.44520989
7547.00   0.44288731
7548.00   0.43382376
7549.00   0.42300087
7550.00   0.42503071
7551.00   0.44106945
7552.00   0.44595736
7553.00   0.44678193
7554.00   0.44509721
7555.00   0.43915930
7556.00   0.43152657
7557.00   0.43134379
7558.00   0.43777385
7559.00   0.44147599
7560.00   0.44821501
7561.00   0.45007369
7562.00   0.44288442
7563.00   0.43126947
7564.00   0.42700812
7565.00   0.42496243
7566.00   0.42743590
7567.00   0.43841204
7568.00   0.44551510
7569.00   0.44469914
7570.00   0.43941864
7571.00   0.43379569
7572.00   0.42291546
7573.00   0.41798282
7574.00   0.41764453
7575.00   0.41706505
7576.00   0.41347647
7577.00   0.40926182
7578.00   0.41175240
7579.00   0.42170712
7580.00   0.42778724
7581.00   0.43305889
7582.00   0.43758702
7583.00   0.44300175
7584.00   0.44786549
7585.00   0.44196624
7586.00   0.42090321
7587.00   0.41106412
7588.00   0.40590295
7589.00   0.40471658
7590.00   0.41043541
7591.00   0.42095760
7592.00   0.41598913
7593.00   0.38265902
7594.00   0.38596258
7595.00   0.43264413
7596.00   0.46661535
7597.00   0.45459372
7598.00   0.41582781
7599.00   0.40533859
7600.00   0.40176913
7601.00   0.41127390
7602.00   0.45508674
7603.00   0.47807604
7604.00   0.43662792
7605.00   0.35196674
7606.00   0.33720639
7607.00   0.37519172
7608.00   0.39513886
7609.00   0.41466993
7610.00   0.42780846
7611.00   0.42732731
7612.00   0.41624245
7613.00   0.41193047
7614.00   0.40693855
7615.00   0.40584815
7616.00   0.40872720
7617.00   0.41330189
7618.00   0.41963235
7619.00   0.42869627
7620.00   0.42642400
7621.00   0.41504312
7622.00   0.40255779
7623.00   0.37632498
7624.00   0.36193135
7625.00   0.38705200
7626.00   0.44546935
7627.00   0.45397830
7628.00   0.41664496
7629.00   0.40747038
7630.00   0.43264973
7631.00   0.45134550
7632.00   0.42581949
7633.00   0.36556268
7634.00   0.34958676
7635.00   0.36204684
7636.00   0.37079310
7637.00   0.37980279
7638.00   0.39061829
7639.00   0.40385196
7640.00   0.42136753
7641.00   0.42667088
7642.00   0.42122319
7643.00   0.41707587
7644.00   0.41315281
7645.00   0.40848517
7646.00   0.40199235
7647.00   0.39186797
7648.00   0.39357421
7649.00   0.41226643
7650.00   0.41740769
7651.00   0.40466192
7652.00   0.38970351
7653.00   0.38870513
7654.00   0.39616567
7655.00   0.40177554
7656.00   0.41209793
7657.00   0.41759631
7658.00   0.41835764
7659.00   0.41588512
7660.00   0.41036305
7661.00   0.39956006
7662.00   0.39518538
7663.00   0.39337525
7664.00   0.39444366
7665.00   0.40039554
7666.00   0.40735194
7667.00   0.40934885
7668.00   0.40803951
7669.00   0.40786386
7670.00   0.40655965
7671.00   0.40658972
7672.00   0.40896928
7673.00   0.41161618
7674.00   0.41148633
7675.00   0.40977302
7676.00   0.40683526
7677.00   0.39813554
7678.00   0.39632615
7679.00   0.40815097
7680.00   0.42116117
7681.00   0.41316634
7682.00   0.38137683
7683.00   0.37704653
7684.00   0.39282277
7685.00   0.40429693
7686.00   0.41031653
7687.00   0.41300192
7688.00   0.40922087
7689.00   0.39616388
7690.00   0.39032865
7691.00   0.38819972
7692.00   0.38535136
7693.00   0.38042313
7694.00   0.37545022
7695.00   0.37380871
7696.00   0.37417585
7697.00   0.37651107
7698.00   0.38041112
7699.00   0.38702095
7700.00   0.40024504
7701.00   0.41435239
7702.00   0.41327596
7703.00   0.39564511
7704.00   0.38914236
7705.00   0.38442010
7706.00   0.38402274
7707.00   0.39088398
7708.00   0.40116435
7709.00   0.40357700
7710.00   0.39787352
7711.00   0.39987600
7712.00   0.40713856
7713.00   0.41344276
7714.00   0.41775888
7715.00   0.42079344
7716.00   0.42062151
7717.00   0.41859293
7718.00   0.41262224
7719.00   0.39612412
7720.00   0.38812390
7721.00   0.39892766
7722.00   0.41874093
7723.00   0.42021757
7724.00   0.40544373
7725.00   0.40111026
7726.00   0.40034929
7727.00   0.40133700
7728.00   0.40454748
7729.00   0.40935278
7730.00   0.40997955
7731.00   0.40634617
7732.00   0.40565544
7733.00   0.40700623
7734.00   0.40772903
7735.00   0.40573782
7736.00   0.40261951
7737.00   0.40547270
7738.00   0.41687477
7739.00   0.42010257
7740.00   0.41737941
7741.00   0.41387567
7742.00   0.41033217
7743.00   0.40637210
7744.00   0.41100404
7745.00   0.42668843
7746.00   0.43513545
7747.00   0.44299376
7748.00   0.44473478
7749.00   0.43526658
7750.00   0.41737041
7751.00   0.40729216
7752.00   0.39629224
7753.00   0.39400208
7754.00   0.40255547
7755.00   0.41149446
7756.00   0.41541070
7757.00   0.41737077
7758.00   0.41608691
7759.00   0.40906325
7760.00   0.40561938
7761.00   0.40521309
7762.00   0.40446991
7763.00   0.40054193
7764.00   0.39447084
7765.00   0.39503661
7766.00   0.40268031
7767.00   0.40654147
7768.00   0.40774107
7769.00   0.40858108
7770.00   0.41116917
7771.00   0.41505590
7772.00   0.41182983
7773.00   0.40055621
7774.00   0.39303243
7775.00   0.38541844
7776.00   0.38168570
7777.00   0.38704821
7778.00   0.40058893
7779.00   0.40479124
7780.00   0.40206900
7781.00   0.40314087
7782.00   0.40892896
7783.00   0.41357419
7784.00   0.41135275
7785.00   0.40336931
7786.00   0.40397665
7787.00   0.40872836
7788.00   0.41660172
7789.00   0.43385461
7790.00   0.44726726
7791.00   0.44187748
7792.00   0.42109033
7793.00   0.41173375
7794.00   0.40523523
7795.00   0.40076619
7796.00   0.39916363
7797.00   0.39888325
7798.00   0.39784315
7799.00   0.39623773
7800.00   0.39901558
7801.00   0.40735897
7802.00   0.41291955
7803.00   0.41632128
7804.00   0.41806924
7805.00   0.41687170
7806.00   0.41033226
7807.00   0.41592577
7808.00   0.43981165
7809.00   0.44713023
7810.00   0.43137443
7811.00   0.41118523
7812.00   0.40802526
7813.00   0.41497010
7814.00   0.41924700
7815.00   0.42478207
7816.00   0.43205383
7817.00   0.44612870
7818.00   0.45732260
7819.00   0.44877973
7820.00   0.41774407
7821.00   0.41293687
7822.00   0.43031666
7823.00   0.43693665
7824.00   0.42698252
7825.00   0.41366255
7826.00   0.41364807
7827.00   0.42365426
7828.00   0.42704585
7829.00   0.42816114
7830.00   0.42953986
7831.00   0.43112347
7832.00   0.43291655
7833.00   0.43568286
7834.00   0.44003385
7835.00   0.44203600
7836.00   0.43902460
7837.00   0.44196337
7838.00   0.45824432
7839.00   0.47561234
7840.00   0.46937633
7841.00   0.43883601
7842.00   0.42643929
7843.00   0.41908124
7844.00   0.41676667
7845.00   0.42126116
7846.00   0.42980337
7847.00   0.43532056
7848.00   0.43949318
7849.00   0.44650480
7850.00   0.46125653
7851.00   0.46676651
7852.00   0.45631176
7853.00   0.43869159
7854.00   0.43141425
7855.00   0.42890114
7856.00   0.42682716
7857.00   0.42725825
7858.00   0.42815092
7859.00   0.42752486
7860.00   0.42789489
7861.00   0.43671995
7862.00   0.46186629
7863.00   0.46653658
7864.00   0.45377004
7865.00   0.44501790
7866.00   0.44754872
7867.00   0.45444787
7868.00   0.45474774
7869.00   0.45221409
7870.00   0.44802335
7871.00   0.43619087
7872.00   0.43156314
7873.00   0.44146490
7874.00   0.45925513
7875.00   0.46787873
7876.00   0.47788259
7877.00   0.47528318
7878.00   0.45716757
7879.00   0.44127351
7880.00   0.43439388
7881.00   0.43153399
7882.00   0.42688233
7883.00   0.41792041
7884.00   0.41984713
7885.00   0.43184531
7886.00   0.44563973
7887.00   0.46136883
7888.00   0.47840649
7889.00   0.47630277
7890.00   0.45206678
7891.00   0.43933585
7892.00   0.42862955
7893.00   0.42238075
7894.00   0.42312220
7895.00   0.42926547
7896.00   0.43268648
7897.00   0.43608207
7898.00   0.44007716
7899.00   0.44648993
7900.00   0.45047578
7901.00   0.44892579
7902.00   0.44355461
7903.00   0.43973994
7904.00   0.43466797
7905.00   0.43128300
7906.00   0.42564484
7907.00   0.42568678
7908.00   0.43880272
7909.00   0.46180338
7910.00   0.47089598
7911.00   0.47678101
7912.00   0.47176570
7913.00   0.44913632
7914.00   0.42856663
7915.00   0.42302883
7916.00   0.42601195
7917.00   0.43105206
7918.00   0.44924998
7919.00   0.45280761
7920.00   0.44113943
7921.00   0.42790926
7922.00   0.42214316
7923.00   0.41942868
7924.00   0.41717753
7925.00   0.41193759
7926.00   0.41713750
7927.00   0.43810922
7928.00   0.45748201
7929.00   0.46205571
7930.00   0.45840991
7931.00   0.44601235
7932.00   0.41380841
7933.00   0.39628813
7934.00   0.38776726
7935.00   0.38886344
7936.00   0.40580451
7937.00   0.44103894
7938.00   0.44891474
7939.00   0.43500194
7940.00   0.42851245
7941.00   0.42608392
7942.00   0.42623869
7943.00   0.43024039
7944.00   0.43870544
7945.00   0.44288763
7946.00   0.44923890
7947.00   0.44700739
7948.00   0.43029067
7949.00   0.41412014
7950.00   0.41579184
7951.00   0.43111810
7952.00   0.43667161
7953.00   0.44173753
7954.00   0.44139928
7955.00   0.43288031
7956.00   0.42280686
7957.00   0.41824892
7958.00   0.41408873
7959.00   0.42181757
7960.00   0.44874692
