# File created by shivutils (I.Shivvers)
# Blotched regions marked with a #.
# wl(A)   flm    er(optional)
3460.00   0.16627729
3462.00   0.12239566
3464.00   0.24454588
3466.00   0.11570240
3468.00   0.18759950
3470.00   0.15543148
3472.00   0.22071804
3474.00   0.19312327
3476.00   0.21265212
3478.00   0.08703984
3480.00   0.19917625
3482.00   0.26345342
3484.00   0.31142855
3486.00   0.28081283
3488.00   0.27184802
3490.00   0.21749674
3492.00   0.25304693
3494.00   0.26974612
3496.00   0.21910350
3498.00   0.26689008
3500.00   0.20708127
3502.00   0.30661994
3504.00   0.12833154
3506.00   0.25050956
3508.00   0.20898066
3510.00   0.27596986
3512.00   0.23918204
3514.00   0.15985744
3516.00   0.31255403
3518.00   0.13727853
3520.00   0.22162966
3522.00   0.31533465
3524.00   0.20629278
3526.00   0.22654803
3528.00   0.18783027
3530.00   0.25018409
3532.00   0.19146277
3534.00   0.23585442
3536.00   0.24877557
3538.00   0.21764846
3540.00   0.26240262
3542.00   0.24852091
3544.00   0.27472168
3546.00   0.25212008
3548.00   0.14852768
3550.00   0.33413181
3552.00   0.27772087
3554.00   0.31685236
3556.00   0.20729707
3558.00   0.26392746
3560.00   0.24257505
3562.00   0.28086469
3564.00   0.21375225
3566.00   0.24789144
3568.00   0.24393800
3570.00   0.20498723
3572.00   0.21633354
3574.00   0.24714631
3576.00   0.35348624
3578.00   0.25642666
3580.00   0.23640229
3582.00   0.26085120
3584.00   0.25461009
3586.00   0.25924540
3588.00   0.22190368
3590.00   0.29825860
3592.00   0.30142546
3594.00   0.27751967
3596.00   0.28778389
3598.00   0.23121756
3600.00   0.22308871
3602.00   0.20978108
3604.00   0.24226075
3606.00   0.24489680
3608.00   0.27820435
3610.00   0.23768774
3612.00   0.20238365
3614.00   0.19269238
3616.00   0.35462642
3618.00   0.25844491
3620.00   0.25330573
3622.00   0.27992716
3624.00   0.23057243
3626.00   0.22744071
3628.00   0.24684589
3630.00   0.22947875
3632.00   0.25353035
3634.00   0.22748400
3636.00   0.23915438
3638.00   0.22800836
3640.00   0.25305730
3642.00   0.23147690
3644.00   0.20037061
3646.00   0.34109852
3648.00   0.32463098
3650.00   0.24910419
3652.00   0.17064893
3654.00   0.21606016
3656.00   0.31810725
3658.00   0.25413087
3660.00   0.37115574
3662.00   0.28422096
3664.00   0.33487016
3666.00   0.29162252
3668.00   0.40812171
3670.00   0.24469922
3672.00   0.39926627
3674.00   0.27519509
3676.00   0.31542623
3678.00   0.40336153
3680.00   0.36726832
3682.00   0.36723760
3684.00   0.36999702
3686.00   0.37485299
3688.00   0.37805346
3690.00   0.36913314
3692.00   0.43052456
3694.00   0.40340251
3696.00   0.39117321
3698.00   0.46180442
3700.00   0.39186144
3702.00   0.44473249
3704.00   0.36232409
3706.00   0.38009799
3708.00   0.45155042
3710.00   0.42846596
3712.00   0.43508828
3714.00   0.39766899
3716.00   0.32541788
3718.00   0.30782399
3720.00   0.35161629
3722.00   0.35858843
3724.00   0.28140217
3726.00   0.37586418
3728.00   0.29509497
3730.00   0.26381478
3732.00   0.31538090
3734.00   0.35964388
3736.00   0.27665061
3738.00   0.32116422
3740.00   0.32113931
3742.00   0.27526966
3744.00   0.27383643
3746.00   0.31390661
3748.00   0.26912516
3750.00   0.27317366
3752.00   0.30122483
3754.00   0.28874949
3756.00   0.29627365
3758.00   0.27108324
3760.00   0.31615189
3762.00   0.34667572
3764.00   0.29104802
3766.00   0.24106644
3768.00   0.24142446
3770.00   0.32696268
3772.00   0.23972090
3774.00   0.19271785
3776.00   0.28819138
3778.00   0.22795285
3780.00   0.24706183
3782.00   0.22541371
3784.00   0.23966788
3786.00   0.22102576
3788.00   0.20263761
3790.00   0.20137167
3792.00   0.22783855
3794.00   0.20757775
3796.00   0.16274919
3798.00   0.16335906
3800.00   0.14865233
3802.00   0.19521961
3804.00   0.21308894
3806.00   0.19301824
3808.00   0.17120907
3810.00   0.15989265
3812.00   0.18981937
3814.00   0.19572517
3816.00   0.14480180
3818.00   0.18831143
3820.00   0.13203561
3822.00   0.19301254
3824.00   0.17277825
3826.00   0.15426266
3828.00   0.18167983
3830.00   0.23554912
3832.00   0.16320515
3834.00   0.19104807
3836.00   0.15832727
3838.00   0.20055465
3840.00   0.19622143
3842.00   0.23073532
3844.00   0.22737524
3846.00   0.18993326
3848.00   0.19582704
3850.00   0.27761024
3852.00   0.27180696
3854.00   0.26369897
3856.00   0.28155828
3858.00   0.28481957
3860.00   0.31453893
3862.00   0.31438380
3864.00   0.31399366
3866.00   0.25207067
3868.00   0.29459897
3870.00   0.36057368
3872.00   0.33966041
3874.00   0.32459247
3876.00   0.32299876
3878.00   0.33808106
3880.00   0.35444787
3882.00   0.35402894
3884.00   0.35994029
3886.00   0.39002019
3888.00   0.37509790
3890.00   0.40227264
3892.00   0.36296338
3894.00   0.41574478
3896.00   0.39576802
3898.00   0.43177640
3900.00   0.43714958
3902.00   0.42555389
3904.00   0.47203448
3906.00   0.43683109
3908.00   0.45829779
3910.00   0.46442738
3912.00   0.48049945
3914.00   0.44322643
3916.00   0.44588125
3918.00   0.44671479
3920.00   0.47871098
3922.00   0.45796701
3924.00   0.48191139
3926.00   0.54451370
3928.00   0.46536070
3930.00   0.47347710
3932.00   0.46189854
3934.00   0.49814132
3936.00   0.46482676
3938.00   0.49120715
3940.00   0.55528116
3942.00   0.56852084
3944.00   0.54246080
3946.00   0.55395198
3948.00   0.49850383
3950.00   0.60997862
3952.00   0.54703796
3954.00   0.53747541
3956.00   0.58281350
3958.00   0.55214328
3960.00   0.58018309
3962.00   0.61345756
3964.00   0.63261187
3966.00   0.61768377
3968.00   0.61403823
3970.00   0.62388635
3972.00   0.69635326
3974.00   0.68967372
3976.00   0.69494617
3978.00   0.62786192
3980.00   0.66042262
3982.00   0.63876337
3984.00   0.66341186
3986.00   0.65301311
3988.00   0.63412315
3990.00   0.60329688
3992.00   0.64556593
3994.00   0.66267014
3996.00   0.64201945
3998.00   0.58784717
4000.00   0.58467561
4002.00   0.57826972
4004.00   0.64827591
4006.00   0.59069234
4008.00   0.57159352
4010.00   0.54774719
4012.00   0.56628221
4014.00   0.59044617
4016.00   0.56722695
4018.00   0.57671398
4020.00   0.52478647
4022.00   0.57125413
4024.00   0.54967320
4026.00   0.53420460
4028.00   0.55117911
4030.00   0.55042481
4032.00   0.52860588
4034.00   0.49463683
4036.00   0.49515578
4038.00   0.48935512
4040.00   0.47108561
4042.00   0.48289034
4044.00   0.50285763
4046.00   0.51690716
4048.00   0.43564403
4050.00   0.42154646
4052.00   0.46470129
4054.00   0.47936842
4056.00   0.42880112
4058.00   0.48744398
4060.00   0.48753881
4062.00   0.49159279
4064.00   0.46740657
4066.00   0.47865242
4068.00   0.47402969
4070.00   0.45926431
4072.00   0.48231491
4074.00   0.52293110
4076.00   0.46928686
4078.00   0.52204496
4080.00   0.50680226
4082.00   0.49938601
4084.00   0.48723844
4086.00   0.49302816
4088.00   0.49900189
4090.00   0.47261798
4092.00   0.45180851
4094.00   0.46890265
4096.00   0.50735539
4098.00   0.48793617
4100.00   0.45579347
4102.00   0.45208234
4104.00   0.42932364
4106.00   0.45284462
4108.00   0.43062246
4110.00   0.46231982
4112.00   0.41597643
4114.00   0.45761797
4116.00   0.39621186
4118.00   0.41953838
4120.00   0.40409461
4122.00   0.41039366
4124.00   0.42133111
4126.00   0.40125626
4128.00   0.37236583
4130.00   0.44623870
4132.00   0.42762032
4134.00   0.41388381
4136.00   0.43091160
4138.00   0.43359753
4140.00   0.44384965
4142.00   0.43309006
4144.00   0.41314232
4146.00   0.41500166
4148.00   0.41482839
4150.00   0.40116835
4152.00   0.35421583
4154.00   0.38757163
4156.00   0.37200400
4158.00   0.40255007
4160.00   0.35800272
4162.00   0.38221377
4164.00   0.38299701
4166.00   0.35911608
4168.00   0.40577784
4170.00   0.38557342
4172.00   0.36609048
4174.00   0.35218892
4176.00   0.37772244
4178.00   0.38239318
4180.00   0.36955729
4182.00   0.37460950
4184.00   0.37076786
4186.00   0.39403367
4188.00   0.41416219
4190.00   0.35616103
4192.00   0.38628662
4194.00   0.43184868
4196.00   0.39287797
4198.00   0.39090642
4200.00   0.41192248
4202.00   0.40627584
4204.00   0.41443402
4206.00   0.39369133
4208.00   0.38568199
4210.00   0.40860188
4212.00   0.43758816
4214.00   0.39247879
4216.00   0.42889285
4218.00   0.45235246
4220.00   0.38322043
4222.00   0.40551221
4224.00   0.35019946
4226.00   0.38579544
4228.00   0.43362406
4230.00   0.42670634
4232.00   0.42512456
4234.00   0.41806182
4236.00   0.42800823
4238.00   0.40737748
4240.00   0.40672758
4242.00   0.43346533
4244.00   0.41972911
4246.00   0.42562839
4248.00   0.44704458
4250.00   0.38315082
4252.00   0.41553089
4254.00   0.43940026
4256.00   0.38020879
4258.00   0.40981635
4260.00   0.39200035
4262.00   0.37768763
4264.00   0.39185312
4266.00   0.40139329
4268.00   0.40452626
4270.00   0.42090541
4272.00   0.41252142
4274.00   0.42431569
4276.00   0.42603186
4278.00   0.40025458
4280.00   0.41460705
4282.00   0.43789509
4284.00   0.37369466
4286.00   0.44990090
4288.00   0.42305556
4290.00   0.41876543
4292.00   0.43878877
4294.00   0.42446843
4296.00   0.42184871
4298.00   0.41344810
4300.00   0.46676600
4302.00   0.45715410
4304.00   0.45637578
4306.00   0.45271969
4308.00   0.45565522
4310.00   0.43263742
4312.00   0.48539981
4314.00   0.46176150
4316.00   0.45565706
4318.00   0.44694859
4320.00   0.44205791
4322.00   0.47809374
4324.00   0.42875388
4326.00   0.42189139
4328.00   0.46429902
4330.00   0.46016976
4332.00   0.44828936
4334.00   0.45171264
4336.00   0.44432521
4338.00   0.45414707
4340.00   0.46768653
4342.00   0.43490911
4344.00   0.48763198
4346.00   0.44448924
4348.00   0.43051469
4350.00   0.42714155
4352.00   0.44141468
4354.00   0.43476483
4356.00   0.43937674
4358.00   0.43399310
4360.00   0.37344283
4362.00   0.39273265
4364.00   0.42502648
4366.00   0.38960782
4368.00   0.43580735
4370.00   0.39459199
4372.00   0.40049043
4374.00   0.39182392
4376.00   0.38873348
4378.00   0.37137330
4380.00   0.39381111
4382.00   0.40108237
4384.00   0.37091181
4386.00   0.34109879
4388.00   0.37118697
4390.00   0.33664867
4392.00   0.37217015
4394.00   0.35266396
4396.00   0.34158617
4398.00   0.37339693
4400.00   0.34256634
4402.00   0.34796521
4404.00   0.35143760
4406.00   0.32843456
4408.00   0.35785031
4410.00   0.32536703
4412.00   0.32972613
4414.00   0.30897593
4416.00   0.33637789
4418.00   0.29555616
4420.00   0.32913399
4422.00   0.32621196
4424.00   0.30484390
4426.00   0.31063575
4428.00   0.29987764
4430.00   0.33044630
4432.00   0.32601741
4434.00   0.27860227
4436.00   0.28655818
4438.00   0.31260684
4440.00   0.29112262
4442.00   0.31746346
4444.00   0.31902605
4446.00   0.28212535
4448.00   0.32359061
4450.00   0.35511434
4452.00   0.31652257
4454.00   0.33786491
4456.00   0.31702489
4458.00   0.33692962
4460.00   0.30869800
4462.00   0.37038898
4464.00   0.31450325
4466.00   0.35866371
4468.00   0.32193291
4470.00   0.29312193
4472.00   0.29568666
4474.00   0.30605698
4476.00   0.31652468
4478.00   0.30991998
4480.00   0.36045402
4482.00   0.33353701
4484.00   0.33000088
4486.00   0.33507854
4488.00   0.34114972
4490.00   0.32275906
4492.00   0.36175495
4494.00   0.35677496
4496.00   0.38237581
4498.00   0.37106994
4500.00   0.36513075
4502.00   0.38569567
4504.00   0.40158078
4506.00   0.39352375
4508.00   0.38399258
4510.00   0.36194867
4512.00   0.40642223
4514.00   0.39080513
4516.00   0.39117548
4518.00   0.40500402
4520.00   0.41604540
4522.00   0.43329117
4524.00   0.44980717
4526.00   0.42865083
4528.00   0.45427960
4530.00   0.45991984
4532.00   0.44559750
4534.00   0.46704754
4536.00   0.46989077
4538.00   0.48794284
4540.00   0.47946531
4542.00   0.54247719
4544.00   0.50614196
4546.00   0.48972675
4548.00   0.51802886
4550.00   0.51255256
4552.00   0.57850313
4554.00   0.62605011
4556.00   0.62340707
4558.00   0.61099893
4560.00   0.63144994
4562.00   0.64532030
4564.00   0.62965077
4566.00   0.73565620
4568.00   0.67077029
4570.00   0.71006793
4572.00   0.68133920
4574.00   0.69914025
4576.00   0.72359234
4578.00   0.74181128
4580.00   0.75834191
4582.00   0.77385265
4584.00   0.81673253
4586.00   0.78437579
4588.00   0.79834461
4590.00   0.81918639
4592.00   0.84759396
4594.00   0.79738301
4596.00   0.76598120
4598.00   0.81536233
4600.00   0.83763987
4602.00   0.82786572
4604.00   0.77758050
4606.00   0.79495776
4608.00   0.82972437
4610.00   0.81326836
4612.00   0.78916758
4614.00   0.84635824
4616.00   0.84883511
4618.00   0.81554681
4620.00   0.84731174
4622.00   0.83140087
4624.00   0.81829751
4626.00   0.81238008
4628.00   0.80914760
4630.00   0.83980453
4632.00   0.86399138
4634.00   0.85018247
4636.00   0.86111557
4638.00   0.86494744
4640.00   0.87405843
4642.00   0.88052648
4644.00   0.87030941
4646.00   0.89514500
4648.00   0.86749297
4650.00   0.88666648
4652.00   0.87406236
4654.00   0.89323783
4656.00   0.86465740
4658.00   0.84573311
4660.00   0.87120283
4662.00   0.82159007
4664.00   0.84222931
4666.00   0.82331830
4668.00   0.82273418
4670.00   0.78163266
4672.00   0.75444996
4674.00   0.75460899
4676.00   0.74788076
4678.00   0.71159071
4680.00   0.69870931
4682.00   0.67697150
4684.00   0.68666106
4686.00   0.64883631
4688.00   0.66300565
4690.00   0.60324228
4692.00   0.61980230
4694.00   0.61750346
4696.00   0.60221821
4698.00   0.57020789
4700.00   0.53065455
4702.00   0.53429258
4704.00   0.53436530
4706.00   0.51009715
4708.00   0.51136845
4710.00   0.47451425
4712.00   0.48857400
4714.00   0.47946861
4716.00   0.45930088
4718.00   0.45561001
4720.00   0.44739521
4722.00   0.42392328
4724.00   0.44519159
4726.00   0.44181973
4728.00   0.44387203
4730.00   0.42395937
4732.00   0.43366873
4734.00   0.43790716
4736.00   0.42552230
4738.00   0.40818271
4740.00   0.42904162
4742.00   0.42360789
4744.00   0.42390692
4746.00   0.41741440
4748.00   0.42828295
4750.00   0.46398023
4752.00   0.42452672
4754.00   0.43245605
4756.00   0.45815548
4758.00   0.39898810
4760.00   0.46304932
4762.00   0.43566748
4764.00   0.41194245
4766.00   0.41094217
4768.00   0.42896673
4770.00   0.42391336
4772.00   0.42400175
4774.00   0.41939571
4776.00   0.42088559
4778.00   0.40227360
4780.00   0.41343260
4782.00   0.40234330
4784.00   0.40501863
4786.00   0.41511619
4788.00   0.44457105
4790.00   0.43872106
4792.00   0.43966541
4794.00   0.44087887
4796.00   0.45636284
4798.00   0.40815228
4800.00   0.43528539
4802.00   0.46289763
4804.00   0.44484228
4806.00   0.49324024
4808.00   0.47507569
4810.00   0.49171549
4812.00   0.50121605
4814.00   0.51524502
4816.00   0.53773063
4818.00   0.53860533
4820.00   0.55607450
4822.00   0.54274672
4824.00   0.60348600
4826.00   0.58218265
4828.00   0.60874820
4830.00   0.58821774
4832.00   0.64025128
4834.00   0.64935964
4836.00   0.62575066
4838.00   0.66964978
4840.00   0.64274406
4842.00   0.65131861
4844.00   0.67020440
4846.00   0.66271293
4848.00   0.64706802
4850.00   0.65385115
4852.00   0.62400514
4854.00   0.63223988
4856.00   0.59262365
4858.00   0.57999885
4860.00   0.58921617
4862.00   0.58558643
4864.00   0.57024974
4866.00   0.55368966
4868.00   0.55536592
4870.00   0.57194233
4872.00   0.53521001
4874.00   0.53037572
4876.00   0.54576665
4878.00   0.55481333
4880.00   0.51698512
4882.00   0.59744817
4884.00   0.55089390
4886.00   0.54955512
4888.00   0.55368328
4890.00   0.56642830
4892.00   0.55853736
4894.00   0.55568761
4896.00   0.60853899
4898.00   0.56716853
4900.00   0.55763400
4902.00   0.56965643
4904.00   0.60744196
4906.00   0.62488830
4908.00   0.58725351
4910.00   0.61720663
4912.00   0.66343611
4914.00   0.65856862
4916.00   0.68668139
4918.00   0.72498071
4920.00   0.71249390
4922.00   0.71030790
4924.00   0.73069161
4926.00   0.73912394
4928.00   0.73928678
4930.00   0.74719596
4932.00   0.78462243
4934.00   0.77656567
4936.00   0.79070956
4938.00   0.80326986
4940.00   0.79581892
4942.00   0.83380657
4944.00   0.85861009
4946.00   0.85255694
4948.00   0.83435625
4950.00   0.87165076
4952.00   0.84983855
4954.00   0.86811155
4956.00   0.89252901
4958.00   0.88042736
4960.00   0.88574547
4962.00   0.86423630
4964.00   0.84900737
4966.00   0.86205417
4968.00   0.89972514
4970.00   0.88203937
4972.00   0.87044209
4974.00   0.85001141
4976.00   0.84226060
4978.00   0.85830051
4980.00   0.83701855
4982.00   0.87352866
4984.00   0.85617119
4986.00   0.88006240
4988.00   0.81530929
4990.00   0.81788939
4992.00   0.78820097
4994.00   0.75964862
4996.00   0.76059455
4998.00   0.71088094
5000.00   0.71802956
5002.00   0.68200868
5004.00   0.64538991
5006.00   0.64761746
5008.00   0.66081238
5010.00   0.63929659
5012.00   0.65722603
5014.00   0.62369555
5016.00   0.60044217
5018.00   0.58555746
5020.00   0.59592110
5022.00   0.57932669
5024.00   0.55557466
5026.00   0.56659400
5028.00   0.55202121
5030.00   0.54357803
5032.00   0.51403803
5034.00   0.54591316
5036.00   0.50721842
5038.00   0.49757129
5040.00   0.48798388
5042.00   0.52065927
5044.00   0.48560175
5046.00   0.50208175
5048.00   0.46843705
5050.00   0.46781716
5052.00   0.46799481
5054.00   0.49365786
5056.00   0.46149296
5058.00   0.47473821
5060.00   0.45707673
5062.00   0.46616846
5064.00   0.45455498
5066.00   0.46053821
5068.00   0.43522665
5070.00   0.45548707
5072.00   0.46175817
5074.00   0.45802894
5076.00   0.44670701
5078.00   0.46806121
5080.00   0.43926400
5082.00   0.44709691
5084.00   0.46666375
5086.00   0.41467550
5088.00   0.41671672
5090.00   0.44126412
5092.00   0.45080560
5094.00   0.43026450
5096.00   0.40578067
5098.00   0.43749115
5100.00   0.44721299
5102.00   0.39515111
5104.00   0.42155969
5106.00   0.42566267
5108.00   0.39391780
5110.00   0.41910234
5112.00   0.39500380
5114.00   0.39367625
5116.00   0.40433317
5118.00   0.38547584
5120.00   0.39734170
5122.00   0.39785248
5124.00   0.39468479
5126.00   0.41352442
5128.00   0.41187999
5130.00   0.40169182
5132.00   0.36744758
5134.00   0.42038500
5136.00   0.38296106
5138.00   0.42891210
5140.00   0.42620140
5142.00   0.41732180
5144.00   0.40530425
5146.00   0.38366285
5148.00   0.38350865
5150.00   0.41805378
5152.00   0.39157805
5154.00   0.39129546
5156.00   0.39986917
5158.00   0.39227784
5160.00   0.37835309
5162.00   0.38778815
5164.00   0.36394635
5166.00   0.37415639
5168.00   0.39533457
5170.00   0.40858212
5172.00   0.41291815
5174.00   0.40738186
5176.00   0.39729616
5178.00   0.38922596
5180.00   0.41915464
5182.00   0.40715259
5184.00   0.41749400
5186.00   0.40794474
5188.00   0.43498370
5190.00   0.42753980
5192.00   0.40575898
5194.00   0.45261014
5196.00   0.42769450
5198.00   0.45087883
5200.00   0.44293895
5202.00   0.44657847
5204.00   0.46461704
5206.00   0.47665560
5208.00   0.46795636
5210.00   0.45847669
5212.00   0.48434407
5214.00   0.49793553
5216.00   0.49077699
5218.00   0.50001067
5220.00   0.48282817
5222.00   0.49970853
5224.00   0.48319647
5226.00   0.49160010
5228.00   0.53935081
5230.00   0.53956556
5232.00   0.57022530
5234.00   0.53757298
5236.00   0.55722904
5238.00   0.55057508
5240.00   0.56171918
5242.00   0.57989550
5244.00   0.58238262
5246.00   0.55755222
5248.00   0.58193690
5250.00   0.57670254
5252.00   0.60932070
5254.00   0.58118612
5256.00   0.59960771
5258.00   0.61061889
5260.00   0.61682981
5262.00   0.64078844
5264.00   0.58646315
5266.00   0.61833280
5268.00   0.66399294
5270.00   0.61584616
5272.00   0.61934739
5274.00   0.59087217
5276.00   0.63076657
5278.00   0.61799765
5280.00   0.64818430
5282.00   0.62191713
5284.00   0.65282911
5286.00   0.67579001
5288.00   0.66349429
5290.00   0.67149687
5292.00   0.69641280
5294.00   0.68190360
5296.00   0.70662367
5298.00   0.69089568
5300.00   0.71034813
5302.00   0.73127449
5304.00   0.69787455
5306.00   0.70644104
5308.00   0.70419085
5310.00   0.72341514
5312.00   0.73924273
5314.00   0.75021780
5316.00   0.74694777
5318.00   0.76171333
5320.00   0.73418772
5322.00   0.74636614
5324.00   0.75876766
5326.00   0.77334905
5328.00   0.73042887
5330.00   0.73503238
5332.00   0.70867503
5334.00   0.72667915
5336.00   0.73157072
5338.00   0.73905849
5340.00   0.70418167
5342.00   0.68555182
5344.00   0.73606288
5346.00   0.69771206
5348.00   0.69403362
5350.00   0.68490851
5352.00   0.72001159
5354.00   0.71056283
5356.00   0.67955381
5358.00   0.70900440
5360.00   0.65291792
5362.00   0.67822117
5364.00   0.67056602
5366.00   0.67176223
5368.00   0.68345124
5370.00   0.65323102
5372.00   0.61882496
5374.00   0.59967768
5376.00   0.61424041
5378.00   0.62440127
5380.00   0.62356400
5382.00   0.60382485
5384.00   0.66008037
5386.00   0.65750098
5388.00   0.67785209
5390.00   0.68229598
5392.00   0.62901914
5394.00   0.68282849
5396.00   0.65886492
5398.00   0.70306742
5400.00   0.68554854
5402.00   0.65148526
5404.00   0.71853292
5406.00   0.69837838
5408.00   0.68785870
5410.00   0.71424466
5412.00   0.72123098
5414.00   0.74527323
5416.00   0.79095447
5418.00   0.83474666
5420.00   0.73116261
5422.00   0.78839529
5424.00   0.85255307
5426.00   0.77225363
5428.00   0.81969428
5430.00   0.85136497
5432.00   0.83036405
5434.00   0.85995471
5436.00   0.88466936
5438.00   0.90855086
5440.00   0.92593729
5442.00   0.94005603
5444.00   0.95135719
5446.00   0.95810926
5448.00   0.96894789
5450.00   0.98225182
5452.00   0.99465930
5454.00   1.00443208
5456.00   1.01622200
5458.00   1.03561938
5460.00   1.06111777
5462.00   1.07668781
5464.00   1.08451593
5466.00   1.09483385
5468.00   1.10634315
5470.00   1.11699927
5472.00   1.12717712
5474.00   1.13620448
5476.00   1.13713682
5478.00   1.11946344
5480.00   1.12717605
5482.00   1.15735853
5484.00   1.18283355
5486.00   1.19819570
5488.00   1.20866871
5490.00   1.21445787
5492.00   1.20943189
5494.00   1.22145462
5496.00   1.25121164
5498.00   1.27115631
5500.00   1.28173542
5502.00   1.28513777
5504.00   1.27792835
5506.00   1.25781238
5508.00   1.25753689
5510.00   1.27417791
5512.00   1.28327000
5514.00   1.28784513
5516.00   1.29045665
5518.00   1.29227781
5520.00   1.29266429
5522.00   1.28844619
5524.00   1.27447999
5526.00   1.27148306
5528.00   1.27580059
5530.00   1.28289819
5532.00   1.29207838
5534.00   1.30349767
5536.00   1.31536961
5538.00   1.33619428
5540.00   1.33492136
5542.00   1.31514335
5544.00   1.29361320
5546.00   1.26394343
5548.00   1.23843503
5550.00   1.24145496
5552.00   1.26859915
5554.00   1.28364205
5556.00   1.30644476
5558.00   1.31153345
5560.00   1.29522693
5562.00   1.27327693
5564.00   1.25309074
5566.00   1.22956777
5568.00   1.23668909
5570.00   1.29141366
5572.00   1.30122507
5574.00   1.27182150
5576.00   1.24188590
5578.00   1.22584426
5580.00   1.21475267
5582.00   1.20873034
5584.00   1.20616055
5586.00   1.21257699
5588.00   1.23330939
5590.00   1.24882352
5592.00   1.25617898
5594.00   1.25866759
5596.00   1.25630677
5598.00   1.24746561
5600.00   1.24030840
5602.00   1.22750795
5604.00   1.22338951
5606.00   1.23260534
5608.00   1.24265432
5610.00   1.24123025
5612.00   1.23315561
5614.00   1.22644591
5616.00   1.21869648
5618.00   1.20912230
5620.00   1.19528306
5622.00   1.18356931
5624.00   1.17784202
5626.00   1.17587066
5628.00   1.17485082
5630.00   1.18215668
5632.00   1.17641342
5634.00   1.15660906
5636.00   1.14140964
5638.00   1.13707733
5640.00   1.13716578
5642.00   1.13426065
5644.00   1.13629544
5646.00   1.12164211
5648.00   1.08544362
5650.00   1.06123102
5652.00   1.05175638
5654.00   1.04957974
5656.00   1.05207527
5658.00   1.06450808
5660.00   1.05700636
5662.00   1.02629173
5664.00   1.01254451
5666.00   1.01876509
5668.00   1.02405405
5670.00   1.01550245
5672.00   0.99961615
5674.00   0.97578961
5676.00   0.92725033
5678.00   0.90971333
5680.00   0.92348933
5682.00   0.93251425
5684.00   0.92307389
5686.00   0.90540993
5688.00   0.88824183
5690.00   0.86401898
5692.00   0.84881765
5694.00   0.84148854
5696.00   0.83160394
5698.00   0.81424743
5700.00   0.79798329
5702.00   0.79640198
5704.00   0.80821669
5706.00   0.80976641
5708.00   0.80691540
5710.00   0.80454516
5712.00   0.80368513
5714.00   0.80093068
5716.00   0.79152477
5718.00   0.77627105
5720.00   0.77543986
5722.00   0.79352176
5724.00   0.79428303
5726.00   0.77702719
5728.00   0.76228708
5730.00   0.76071793
5732.00   0.76546890
5734.00   0.76646966
5736.00   0.76727015
5738.00   0.76808321
5740.00   0.76879871
5742.00   0.76955050
5744.00   0.77102363
5746.00   0.77210784
5748.00   0.76977646
5750.00   0.76213342
5752.00   0.76332051
5754.00   0.77375728
5756.00   0.77926159
5758.00   0.77878755
5760.00   0.77610278
5762.00   0.77340788
5764.00   0.76902658
5766.00   0.76901972
5768.00   0.77404404
5770.00   0.77581096
5772.00   0.77299690
5774.00   0.77212745
5776.00   0.77812129
5778.00   0.78833181
5780.00   0.79434574
5782.00   0.79862469
5784.00   0.80272561
5786.00   0.80752695
5788.00   0.80961299
5790.00   0.80568886
5792.00   0.79974264
5794.00   0.80265731
5796.00   0.81276351
5798.00   0.82044011
5800.00   0.83489501
5802.00   0.83797979
5804.00   0.82124412
5806.00   0.80104160
5808.00   0.79960775
5810.00   0.80965358
5812.00   0.81874639
5814.00   0.83688617
5816.00   0.84555060
5818.00   0.84296137
5820.00   0.83846730
5822.00   0.83833271
5824.00   0.83945036
5826.00   0.84352416
5828.00   0.85654187
5830.00   0.85718906
5832.00   0.84413290
5834.00   0.83305246
5836.00   0.83200103
5838.00   0.83497894
5840.00   0.83099568
5842.00   0.81759661
5844.00   0.81745803
5846.00   0.83145624
5848.00   0.83830106
5850.00   0.83246851
5852.00   0.82155859
5854.00   0.81408328
5856.00   0.80659717
5858.00   0.79934758
5860.00   0.78785932
5862.00   0.78531688
5864.00   0.79390252
5866.00   0.80668634
5868.00   0.81929594
5870.00   0.83538145
5872.00   0.83723092
5874.00   0.82029891
5876.00   0.81763703
#5878.00   0.82157701
#5880.00   0.83587247
#5882.00   0.87362677
#5884.00   0.92522597
#5886.00   0.92240125
#5888.00   0.86547208
#5890.00   0.83412582
#5892.00   0.80955786
#5894.00   0.78360200
#5896.00   0.74837029
#5898.00   0.71467453
#5900.00   0.70901442
#5902.00   0.72667783
#5904.00   0.74455506
#5906.00   0.78195524
#5908.00   0.80311102
5910.00   0.80290025
5912.00   0.79358494
5914.00   0.78492093
5916.00   0.77053565
5918.00   0.76621693
5920.00   0.77120864
5922.00   0.77202159
5924.00   0.76948106
5926.00   0.76625872
5928.00   0.76394832
5930.00   0.76180017
5932.00   0.75723892
5934.00   0.74875641
5936.00   0.74420172
5938.00   0.74179035
5940.00   0.74124849
5942.00   0.74505329
5944.00   0.75001752
5946.00   0.74314731
5948.00   0.72230619
5950.00   0.71328872
5952.00   0.70962352
5954.00   0.70774335
5956.00   0.70988327
5958.00   0.71174639
5960.00   0.70404857
5962.00   0.68778431
5964.00   0.67840129
5966.00   0.67400968
5968.00   0.66554606
5970.00   0.65040207
5972.00   0.63643008
5974.00   0.63089979
5976.00   0.63094550
5978.00   0.62912297
5980.00   0.62963921
5982.00   0.62698591
5984.00   0.61984581
5986.00   0.61438310
5988.00   0.61546570
5990.00   0.61947274
5992.00   0.61388463
5994.00   0.59578317
5996.00   0.59021151
5998.00   0.59172815
6000.00   0.59537607
6002.00   0.60219622
6004.00   0.60979468
6006.00   0.61036098
6008.00   0.60618943
6010.00   0.60075110
6012.00   0.59053934
6014.00   0.58275819
6016.00   0.57636112
6018.00   0.57274479
6020.00   0.57506073
6022.00   0.58278787
6024.00   0.58859962
6026.00   0.59775299
6028.00   0.60125047
6030.00   0.59858936
6032.00   0.59457928
6034.00   0.59107584
6036.00   0.58714831
6038.00   0.58897966
6040.00   0.60127378
6042.00   0.60131097
6044.00   0.58985841
6046.00   0.58045888
6048.00   0.57690394
6050.00   0.57647192
6052.00   0.57963264
6054.00   0.59019285
6056.00   0.59241998
6058.00   0.58786279
6060.00   0.58577412
6062.00   0.58969247
6064.00   0.59279412
6066.00   0.58497775
6068.00   0.56649721
6070.00   0.56197232
6072.00   0.56874096
6074.00   0.57085067
6076.00   0.56977290
6078.00   0.56663960
6080.00   0.56017435
6082.00   0.55047888
6084.00   0.54867512
6086.00   0.55436260
6088.00   0.55660611
6090.00   0.55821234
6092.00   0.55822855
6094.00   0.55425251
6096.00   0.54872602
6098.00   0.55216974
6100.00   0.56752306
6102.00   0.57106006
6104.00   0.56572074
6106.00   0.56296682
6108.00   0.56586933
6110.00   0.57019460
6112.00   0.57180113
6114.00   0.57599211
6116.00   0.56452638
6118.00   0.53173524
6120.00   0.51167113
6122.00   0.50779724
6124.00   0.50698894
6126.00   0.49795565
6128.00   0.48478189
6130.00   0.47815549
6132.00   0.47796798
6134.00   0.47334352
6136.00   0.46555647
6138.00   0.45643562
6140.00   0.44603026
6142.00   0.43446651
6144.00   0.42622471
6146.00   0.42117530
6148.00   0.41445634
6150.00   0.40608749
6152.00   0.39961788
6154.00   0.39689004
6156.00   0.39569578
6158.00   0.39181256
6160.00   0.38716903
6162.00   0.38045296
6164.00   0.37294099
6166.00   0.36207643
6168.00   0.34277216
6170.00   0.32538787
6172.00   0.32514319
6174.00   0.33876854
6176.00   0.34318325
6178.00   0.34642681
6180.00   0.34666783
6182.00   0.34044772
6184.00   0.33652702
6186.00   0.34354967
6188.00   0.35759565
6190.00   0.35855296
6192.00   0.34617382
6194.00   0.34391645
6196.00   0.34837586
6198.00   0.35372007
6200.00   0.35830632
6202.00   0.36310822
6204.00   0.36706090
6206.00   0.36834088
6208.00   0.37516522
6210.00   0.38777807
6212.00   0.39849806
6214.00   0.40597960
6216.00   0.41229740
6218.00   0.41943145
6220.00   0.42763522
6222.00   0.43106097
6224.00   0.42752656
6226.00   0.42924806
6228.00   0.43752074
6230.00   0.44673774
6232.00   0.45257881
6234.00   0.45699218
6236.00   0.46089801
6238.00   0.46325091
6240.00   0.46641850
6242.00   0.47042423
6244.00   0.47399154
6246.00   0.47644749
6248.00   0.47822446
6250.00   0.47999939
6252.00   0.48083168
6254.00   0.48308027
6256.00   0.48620403
6258.00   0.48981839
6260.00   0.49406627
6262.00   0.49865991
6264.00   0.50293672
6266.00   0.50835675
6268.00   0.50943482
6270.00   0.50476694
6272.00   0.50351709
6274.00   0.50660926
6276.00   0.51113021
6278.00   0.51574481
6280.00   0.52253151
6282.00   0.51889741
6284.00   0.49996197
6286.00   0.49396557
6288.00   0.49821773
6290.00   0.50796932
6292.00   0.52400708
6294.00   0.54579991
6296.00   0.55282265
6298.00   0.54731995
6300.00   0.54552072
6302.00   0.53975374
6304.00   0.53936386
6306.00   0.54948509
6308.00   0.56482065
6310.00   0.57461971
6312.00   0.58366609
6314.00   0.58904999
6316.00   0.59018463
6318.00   0.59129459
6320.00   0.59107143
6322.00   0.59204388
6324.00   0.60011154
6326.00   0.61587369
6328.00   0.62039685
6330.00   0.61549336
6332.00   0.61414003
6334.00   0.61395258
6336.00   0.61675328
6338.00   0.62598693
6340.00   0.64048886
6342.00   0.64971203
6344.00   0.65626693
6346.00   0.66327745
6348.00   0.67012495
6350.00   0.67661572
6352.00   0.68260694
6354.00   0.68823928
6356.00   0.69410968
6358.00   0.70138091
6360.00   0.70522571
6362.00   0.70378876
6364.00   0.70626348
6366.00   0.71676499
6368.00   0.72904241
6370.00   0.73262954
6372.00   0.72836113
6374.00   0.73284197
6376.00   0.74219048
6378.00   0.75251102
6380.00   0.76503140
6382.00   0.77774101
6384.00   0.78958803
6386.00   0.80266088
6388.00   0.80015332
6390.00   0.76922703
6392.00   0.76827288
6394.00   0.79879820
6396.00   0.83050746
6398.00   0.84816557
6400.00   0.86015874
6402.00   0.86734092
6404.00   0.86384392
6406.00   0.86829060
6408.00   0.87780029
6410.00   0.88641787
6412.00   0.89121324
6414.00   0.89564437
6416.00   0.90678906
6418.00   0.92709559
6420.00   0.93479955
6422.00   0.93006402
6424.00   0.93182290
6426.00   0.94268537
6428.00   0.95645142
6430.00   0.96805561
6432.00   0.98028427
6434.00   0.98870748
6436.00   0.99320686
6438.00   0.99858719
6440.00   1.00600708
6442.00   1.01111829
6444.00   1.00934017
6446.00   1.00266933
6448.00   1.00490963
6450.00   1.01528001
6452.00   1.02081013
6454.00   1.02272987
6456.00   1.02595055
6458.00   1.03362310
6460.00   1.04272473
6462.00   1.04516649
6464.00   1.03808320
6466.00   1.04313231
6468.00   1.06190157
6470.00   1.07148147
6472.00   1.06568694
6474.00   1.05464196
6476.00   1.05008411
6478.00   1.04596639
6480.00   1.04927170
6482.00   1.06355619
6484.00   1.07135928
6486.00   1.07087851
6488.00   1.06998014
6490.00   1.07578123
6492.00   1.08584750
6494.00   1.08804381
6496.00   1.08335888
6498.00   1.08164418
6500.00   1.08134222
6502.00   1.08132684
6504.00   1.08078516
6506.00   1.08036101
6508.00   1.08288085
6510.00   1.09061909
6512.00   1.09247088
6514.00   1.08810842
6516.00   1.08724368
6518.00   1.09327996
6520.00   1.10202098
6522.00   1.10756958
6524.00   1.11245346
6526.00   1.11564279
6528.00   1.11652565
6530.00   1.11785126
6532.00   1.12090302
6534.00   1.12271667
6536.00   1.11930001
6538.00   1.11117983
6540.00   1.10860777
6542.00   1.11055779
6544.00   1.10974729
6546.00   1.10371792
6548.00   1.10127258
6550.00   1.10988700
6552.00   1.12557602
6554.00   1.13214135
6556.00   1.13613129
6558.00   1.13452423
6560.00   1.12479222
6562.00   1.11573148
6564.00   1.11080623
6566.00   1.10691547
6568.00   1.09974384
6570.00   1.08846188
6572.00   1.08271110
6574.00   1.08159518
6576.00   1.07930326
6578.00   1.07480741
6580.00   1.07006216
6582.00   1.06709719
6584.00   1.06558669
6586.00   1.06232953
6588.00   1.05989146
6590.00   1.05353355
6592.00   1.03957665
6594.00   1.02775955
6596.00   1.02747154
6598.00   1.03493154
6600.00   1.03466856
6602.00   1.02944982
6604.00   1.02729261
6606.00   1.02838600
6608.00   1.02768350
6610.00   1.02316010
6612.00   1.01608765
6614.00   1.00670612
6616.00   0.99096209
6618.00   0.98270398
6620.00   0.98135936
6622.00   0.97705531
6624.00   0.96723080
6626.00   0.95533806
6628.00   0.94516557
6630.00   0.93499631
6632.00   0.92586631
6634.00   0.91688085
6636.00   0.90975100
6638.00   0.90504247
6640.00   0.90125912
6642.00   0.89731717
6644.00   0.89406914
6646.00   0.88775718
6648.00   0.87921542
6650.00   0.86973524
6652.00   0.85825700
6654.00   0.84680545
6656.00   0.83619356
6658.00   0.82604992
6660.00   0.81866086
6662.00   0.81486845
6664.00   0.80915868
6666.00   0.80468905
6668.00   0.79697067
6670.00   0.78290313
6672.00   0.76640427
6674.00   0.75608003
6676.00   0.74937749
6678.00   0.74317724
6680.00   0.74020076
6682.00   0.73528796
6684.00   0.72766376
6686.00   0.71913451
6688.00   0.71149361
6690.00   0.70433253
6692.00   0.69513398
6694.00   0.68198854
6696.00   0.67334104
6698.00   0.66801178
6700.00   0.66593313
6702.00   0.66904473
6704.00   0.67667061
6706.00   0.67573947
6708.00   0.66831517
6710.00   0.66232955
6712.00   0.65460593
6714.00   0.64849752
6716.00   0.64543837
6718.00   0.64436799
6720.00   0.64436859
6722.00   0.64687431
6724.00   0.64784402
6726.00   0.65074974
6728.00   0.64917183
6730.00   0.63921458
6732.00   0.62766206
6734.00   0.62518513
6736.00   0.62817341
6738.00   0.63263476
6740.00   0.64349079
6742.00   0.64964110
6744.00   0.65026760
6746.00   0.64961803
6748.00   0.65078306
6750.00   0.65233475
6752.00   0.65413994
6754.00   0.65737706
6756.00   0.65840852
6758.00   0.65873021
6760.00   0.65643549
6762.00   0.64903826
6764.00   0.63853168
6766.00   0.63414997
6768.00   0.63271624
6770.00   0.63379455
6772.00   0.63867533
6774.00   0.64415169
6776.00   0.65136832
6778.00   0.65799582
6780.00   0.65667588
6782.00   0.64757824
6784.00   0.64296192
6786.00   0.63766694
6788.00   0.63576251
6790.00   0.63972443
6792.00   0.64397895
6794.00   0.64118499
6796.00   0.63275677
6798.00   0.63368839
6800.00   0.64460921
6802.00   0.64819324
6804.00   0.64673352
6806.00   0.64153492
6808.00   0.63107628
6810.00   0.61620188
6812.00   0.60975951
6814.00   0.61178845
6816.00   0.60737073
6818.00   0.59585327
6820.00   0.58912516
6822.00   0.59319711
6824.00   0.60201240
6826.00   0.60358155
6828.00   0.60251832
6830.00   0.59840024
6832.00   0.58728576
6834.00   0.58088279
6836.00   0.58228493
6838.00   0.58561718
6840.00   0.58369887
6842.00   0.57833230
6844.00   0.57678980
6846.00   0.57677060
6848.00   0.57822055
6850.00   0.58279186
6852.00   0.58672225
6854.00   0.58635336
6856.00   0.58319730
6858.00   0.58233660
6860.00   0.58159459
6862.00   0.58244991
6864.00   0.58712602
6866.00   0.58907968
6868.00   0.58601534
6870.00   0.57914609
6872.00   0.56615388
6874.00   0.53830606
6876.00   0.52897531
6878.00   0.53151608
6880.00   0.53687465
6882.00   0.54660141
6884.00   0.55707514
6886.00   0.55700898
6888.00   0.54717332
6890.00   0.54597062
6892.00   0.55039424
6894.00   0.55226696
6896.00   0.55180299
6898.00   0.54984868
6900.00   0.54616755
6902.00   0.54053658
6904.00   0.53633237
6906.00   0.53164238
6908.00   0.52899784
6910.00   0.52798915
6912.00   0.52848250
6914.00   0.53100222
6916.00   0.53514928
6918.00   0.53733021
6920.00   0.53893542
6922.00   0.53955323
6924.00   0.53807592
6926.00   0.53780550
6928.00   0.54009128
6930.00   0.54347026
6932.00   0.54569525
6934.00   0.54832107
6936.00   0.54842955
6938.00   0.54569852
6940.00   0.54366565
6942.00   0.54126227
6944.00   0.54046082
6946.00   0.54525989
6948.00   0.55543983
6950.00   0.56056863
6952.00   0.56458360
6954.00   0.56570369
6956.00   0.56291294
6958.00   0.55919069
6960.00   0.55608046
6962.00   0.55270773
6964.00   0.55348188
6966.00   0.55875432
6968.00   0.56242144
6970.00   0.56676394
6972.00   0.56962174
6974.00   0.56967825
6976.00   0.56810123
6978.00   0.56741476
6980.00   0.56556445
6982.00   0.56668299
6984.00   0.57306087
6986.00   0.57469708
6988.00   0.56884557
6990.00   0.55995977
6992.00   0.55318886
6994.00   0.54561740
6996.00   0.54173738
6998.00   0.54162478
7000.00   0.54076010
7002.00   0.53815496
7004.00   0.53698391
7006.00   0.54135150
7008.00   0.55048859
7010.00   0.54905486
7012.00   0.53748775
7014.00   0.53082222
7016.00   0.52677757
7018.00   0.52344453
7020.00   0.52074492
7022.00   0.51852185
7024.00   0.51337260
7026.00   0.50321388
7028.00   0.49919027
7030.00   0.50066620
7032.00   0.50059146
7034.00   0.49662492
7036.00   0.49156749
7038.00   0.48921320
7040.00   0.48841542
7042.00   0.48767039
7044.00   0.48839405
7046.00   0.48777390
7048.00   0.48527744
7050.00   0.48229763
7052.00   0.47992879
7054.00   0.47733721
7056.00   0.47746149
7058.00   0.48141924
7060.00   0.48269847
7062.00   0.48238429
7064.00   0.48041901
7066.00   0.47607952
7068.00   0.46975258
7070.00   0.46479493
7072.00   0.45872191
7074.00   0.45589393
7076.00   0.45627129
7078.00   0.45700115
7080.00   0.45751232
7082.00   0.45803949
7084.00   0.45737267
7086.00   0.45594114
7088.00   0.45384356
7090.00   0.45018381
7092.00   0.44745311
7094.00   0.44666228
7096.00   0.44589171
7098.00   0.44222006
7100.00   0.43565041
7102.00   0.43358687
7104.00   0.43371585
7106.00   0.43589658
7108.00   0.44267642
7110.00   0.44827586
7112.00   0.44702739
7114.00   0.44125459
7116.00   0.43900684
7118.00   0.43763483
7120.00   0.43689770
7122.00   0.43795568
7124.00   0.43796986
7126.00   0.43491262
7128.00   0.43044260
7130.00   0.42929536
7132.00   0.42883560
7134.00   0.43224570
7136.00   0.44220254
7138.00   0.44859660
7140.00   0.44869667
7142.00   0.44617790
7144.00   0.44524199
7146.00   0.44406539
7148.00   0.44340324
7150.00   0.44217974
7152.00   0.44290891
7154.00   0.44593871
7156.00   0.45012408
7158.00   0.45493066
7160.00   0.46108720
7162.00   0.46363151
7164.00   0.46366489
7166.00   0.46288764
7168.00   0.45814338
7170.00   0.45643106
7172.00   0.46322522
7174.00   0.47522289
7176.00   0.48203301
7178.00   0.48746803
7180.00   0.49102724
7182.00   0.49226591
7184.00   0.49275467
7186.00   0.49255934
7188.00   0.49185991
7190.00   0.49200079
7192.00   0.49210411
7194.00   0.49369359
7196.00   0.49823546
7198.00   0.50010049
7200.00   0.49614236
7202.00   0.49290520
7204.00   0.49928725
7206.00   0.51320618
7208.00   0.52273047
7210.00   0.53563476
7212.00   0.53973472
7214.00   0.53260863
7216.00   0.52398121
7218.00   0.51945788
7220.00   0.51606178
7222.00   0.52118921
7224.00   0.53899997
7226.00   0.54757315
7228.00   0.55063820
7230.00   0.55206525
7232.00   0.55246890
7234.00   0.55178601
7236.00   0.55306172
7238.00   0.55831903
7240.00   0.55598986
7242.00   0.54619759
7244.00   0.53839743
7246.00   0.53298920
7248.00   0.52979797
7250.00   0.53180289
7252.00   0.54070264
7254.00   0.54068512
7256.00   0.53463674
7258.00   0.52890414
7260.00   0.52084172
7262.00   0.51495284
7264.00   0.51659638
7266.00   0.52374375
7268.00   0.53028035
7270.00   0.54485410
7272.00   0.54629028
7274.00   0.53303784
7276.00   0.51971465
7278.00   0.51259005
7280.00   0.50820154
7282.00   0.50902015
7284.00   0.51825255
7286.00   0.52209353
7288.00   0.52614552
7290.00   0.52587765
7292.00   0.51792955
7294.00   0.50709677
7296.00   0.50313401
7298.00   0.50295156
7300.00   0.50334507
7302.00   0.50688171
7304.00   0.50889891
7306.00   0.50895566
7308.00   0.50843298
7310.00   0.50790936
7312.00   0.50635558
7314.00   0.51015693
7316.00   0.52273852
7318.00   0.52683347
7320.00   0.52131116
7322.00   0.51561838
7324.00   0.51552778
7326.00   0.51803136
7328.00   0.52040303
7330.00   0.52411216
7332.00   0.52743131
7334.00   0.52956140
7336.00   0.53379601
7338.00   0.54404294
7340.00   0.55553710
7342.00   0.55416989
7344.00   0.54044402
7346.00   0.53308004
7348.00   0.52249146
7350.00   0.51998091
7352.00   0.52918273
7354.00   0.54324317
7356.00   0.55420929
7358.00   0.56680697
7360.00   0.57237148
7362.00   0.57109594
7364.00   0.57084596
7366.00   0.57059163
7368.00   0.57054055
7370.00   0.57118016
7372.00   0.57218885
7374.00   0.57529736
7376.00   0.58140802
7378.00   0.58570147
7380.00   0.58934140
7382.00   0.59205914
7384.00   0.59210563
7386.00   0.59132016
7388.00   0.59863663
7390.00   0.61697257
7392.00   0.62493122
7394.00   0.62823921
7396.00   0.62859088
7398.00   0.62453276
7400.00   0.61875623
7402.00   0.61753947
7404.00   0.61872065
7406.00   0.62066597
7408.00   0.62526798
7410.00   0.62839019
7412.00   0.62933046
7414.00   0.63024193
7416.00   0.63246965
7418.00   0.63479394
7420.00   0.64341486
7422.00   0.66194367
7424.00   0.67244887
7426.00   0.67635727
7428.00   0.67818224
7430.00   0.67880219
7432.00   0.67797023
7434.00   0.68357426
7436.00   0.69936687
7438.00   0.70352787
7440.00   0.69753319
7442.00   0.69335216
7444.00   0.69518620
7446.00   0.69879860
7448.00   0.69867015
7450.00   0.69700974
7452.00   0.69339842
7454.00   0.68627632
7456.00   0.68056041
7458.00   0.67553383
7460.00   0.67241430
7462.00   0.67429435
7464.00   0.68110168
7466.00   0.68418729
7468.00   0.68827647
7470.00   0.68735868
7472.00   0.68186098
7474.00   0.67276686
7476.00   0.65976650
7478.00   0.64285988
7480.00   0.62816870
7482.00   0.61283219
7484.00   0.59934860
7486.00   0.58600706
7488.00   0.57572812
7490.00   0.57085586
7492.00   0.56909490
7494.00   0.56387752
7496.00   0.55834860
7498.00   0.54986036
7500.00   0.53829813
7502.00   0.52622896
7504.00   0.51313663
7506.00   0.50011730
7508.00   0.48992771
7510.00   0.48171300
7512.00   0.47404540
7514.00   0.46942797
7516.00   0.46164548
7518.00   0.44963321
7520.00   0.43707323
7522.00   0.42735982
7524.00   0.41924945
7526.00   0.40838972
7528.00   0.39402434
7530.00   0.38323313
7532.00   0.37425500
7534.00   0.36793992
7536.00   0.36604062
7538.00   0.36712363
7540.00   0.36374906
7542.00   0.35589582
7544.00   0.35260797
7546.00   0.34951502
7548.00   0.35152096
7550.00   0.36267045
7552.00   0.37712914
7554.00   0.38254419
7556.00   0.38176772
7558.00   0.38360676
7560.00   0.38439941
7562.00   0.38694066
7564.00   0.39119011
7566.00   0.39695770
7568.00   0.40488744
7570.00   0.41551268
7572.00   0.42217571
7574.00   0.42532381
7576.00   0.43035504
7578.00   0.43842104
7580.00   0.44466409
7582.00   0.44354787
7584.00   0.43796983
7586.00   0.44762912
7588.00   0.46977580
7590.00   0.49088433
7592.00   0.52021343
7594.00   0.54228091
7596.00   0.54990888
7598.00   0.54983938
7600.00   0.55394417
7602.00   0.56372935
7604.00   0.55597019
7606.00   0.51790339
7608.00   0.50634396
7610.00   0.53987008
7612.00   0.58359325
7614.00   0.59247524
7616.00   0.58011580
7618.00   0.57735908
7620.00   0.57186335
7622.00   0.57134688
7624.00   0.57738823
7626.00   0.58430183
7628.00   0.58716100
7630.00   0.58800566
7632.00   0.59309745
7634.00   0.60274178
7636.00   0.60909462
7638.00   0.61413592
7640.00   0.61719620
7642.00   0.61588091
7644.00   0.61262500
7646.00   0.61885637
7648.00   0.63813400
7650.00   0.64374536
7652.00   0.63751465
7654.00   0.63640767
7656.00   0.64486748
7658.00   0.65705085
7660.00   0.66659939
7662.00   0.67652750
7664.00   0.68443316
7666.00   0.69280243
7668.00   0.69644111
7670.00   0.69277394
7672.00   0.68812495
7674.00   0.68883479
7676.00   0.69213903
7678.00   0.69720513
7680.00   0.70684993
7682.00   0.71301669
7684.00   0.71577090
7686.00   0.71853882
7688.00   0.72303754
7690.00   0.72833055
7692.00   0.73432809
7694.00   0.74254996
7696.00   0.74802625
7698.00   0.75352842
7700.00   0.75519162
7702.00   0.74793655
7704.00   0.73870701
7706.00   0.74604726
7708.00   0.77098709
7710.00   0.77973408
7712.00   0.78326410
7714.00   0.77962846
7716.00   0.76402497
7718.00   0.74610770
7720.00   0.73927224
7722.00   0.73837990
7724.00   0.73958820
7726.00   0.74897999
7728.00   0.75154227
7730.00   0.74517000
7732.00   0.73971581
7734.00   0.74224871
7736.00   0.74937493
7738.00   0.75635689
7740.00   0.76644742
7742.00   0.77431226
7744.00   0.78289527
7746.00   0.78780699
7748.00   0.78745872
7750.00   0.78286594
7752.00   0.77362967
7754.00   0.75405127
7756.00   0.74553263
7758.00   0.74500191
7760.00   0.74304813
7762.00   0.73877954
7764.00   0.73323542
7766.00   0.72452867
7768.00   0.70865750
7770.00   0.71135175
7772.00   0.73664004
7774.00   0.74782264
7776.00   0.74539495
7778.00   0.73600131
7780.00   0.72047651
7782.00   0.69649428
7784.00   0.68935359
7786.00   0.69568717
7788.00   0.69923669
7790.00   0.70347786
7792.00   0.70786005
7794.00   0.71252775
7796.00   0.71713835
7798.00   0.71708536
7800.00   0.71233022
7802.00   0.70855379
7804.00   0.70369714
7806.00   0.69896215
7808.00   0.69502383
7810.00   0.69097155
7812.00   0.68509084
7814.00   0.67789960
7816.00   0.67006707
7818.00   0.65862328
7820.00   0.65172178
7822.00   0.64941645
7824.00   0.65081280
7826.00   0.65703988
7828.00   0.66945153
7830.00   0.67304814
7832.00   0.67278796
7834.00   0.66844320
7836.00   0.65781707
7838.00   0.64626646
7840.00   0.63595271
7842.00   0.62575716
7844.00   0.62543792
7846.00   0.63923669
7848.00   0.64193904
7850.00   0.64194328
7852.00   0.63390481
7854.00   0.61186838
7856.00   0.58286953
7858.00   0.56665283
7860.00   0.55362123
7862.00   0.55230552
7864.00   0.56687850
7866.00   0.57796335
7868.00   0.58539927
7870.00   0.58924705
7872.00   0.58389688
7874.00   0.56720215
7876.00   0.56616026
7878.00   0.57797652
7880.00   0.58489722
7882.00   0.58820397
7884.00   0.58974296
7886.00   0.59008831
7888.00   0.58905184
7890.00   0.58497530
7892.00   0.57544965
7894.00   0.57008690
7896.00   0.56681520
7898.00   0.56556273
7900.00   0.56653947
7902.00   0.56956643
7904.00   0.57409221
7906.00   0.58660406
7908.00   0.58534837
7910.00   0.57284164
7912.00   0.56001157
7914.00   0.54760516
7916.00   0.53552544
7918.00   0.52757925
7920.00   0.52339995
7922.00   0.51740116
7924.00   0.50876379
7926.00   0.50513226
7928.00   0.50970143
7930.00   0.51446337
7932.00   0.51064974
7934.00   0.50111455
7936.00   0.49657297
7938.00   0.49288327
7940.00   0.49197885
7942.00   0.49580923
7944.00   0.49873385
7946.00   0.49826160
7948.00   0.49562407
7950.00   0.48641253
7952.00   0.46310723
7954.00   0.45599273
7956.00   0.45951778
7958.00   0.46664080
7960.00   0.47832161
7962.00   0.49189973
7964.00   0.49571648
7966.00   0.49278504
7968.00   0.48907211
7970.00   0.47842970
7972.00   0.47345752
7974.00   0.47661638
7976.00   0.48250797
7978.00   0.48603627
7980.00   0.49005288
7982.00   0.48982397
7984.00   0.48574483
7986.00   0.48131043
7988.00   0.47460145
7990.00   0.46896648
7992.00   0.46829918
7994.00   0.47094712
7996.00   0.46646219
7998.00   0.45434415
8000.00   0.44792682
8002.00   0.44310865
8004.00   0.44238186
8006.00   0.44826508
8008.00   0.45823756
8010.00   0.46465787
8012.00   0.47400787
8014.00   0.47289348
8016.00   0.45762545
8018.00   0.44996870
8020.00   0.45650339
8022.00   0.46666059
8024.00   0.46655393
8026.00   0.46003914
8028.00   0.45663455
8030.00   0.45267329
8032.00   0.45018488
8034.00   0.44769508
8036.00   0.44803923
8038.00   0.45509040
8040.00   0.46786156
8042.00   0.47597122
8044.00   0.48734730
8046.00   0.48769355
8048.00   0.47477353
8050.00   0.46134701
8052.00   0.45381132
8054.00   0.44836476
8056.00   0.44243407
8058.00   0.43428278
8060.00   0.43286365
8062.00   0.43803981
8064.00   0.44318593
8066.00   0.44894937
8068.00   0.45329908
8070.00   0.44761184
8072.00   0.43029836
8074.00   0.42348462
8076.00   0.42186341
8078.00   0.42098591
8080.00   0.41948271
8082.00   0.42060414
8084.00   0.42876473
8086.00   0.44371548
8088.00   0.45193377
8090.00   0.45896143
8092.00   0.46123087
8094.00   0.45797738
8096.00   0.45240295
8098.00   0.44514605
8100.00   0.43586898
8102.00   0.43446535
8104.00   0.44252470
8106.00   0.44345433
8108.00   0.44056255
8110.00   0.43619782
8112.00   0.43026552
8114.00   0.42331383
8116.00   0.41872025
8118.00   0.41444963
8120.00   0.41348764
8122.00   0.41706309
8124.00   0.41906339
8126.00   0.41931224
8128.00   0.41805708
8130.00   0.41371143
8132.00   0.40499353
8134.00   0.40355921
8136.00   0.40867013
8138.00   0.41123569
8140.00   0.41132301
8142.00   0.41120097
8144.00   0.41278568
8146.00   0.41545919
8148.00   0.41361144
8150.00   0.40809721
8152.00   0.40228239
8154.00   0.39434725
8156.00   0.38707027
8158.00   0.38163316
8160.00   0.37734097
8162.00   0.37446868
8164.00   0.37411633
8166.00   0.37214044
8168.00   0.37064981
8170.00   0.36718142
8172.00   0.35969728
8174.00   0.35142714
8176.00   0.34881133
8178.00   0.35162029
8180.00   0.34853813
8182.00   0.34057903
8184.00   0.33523351
8186.00   0.33285299
8188.00   0.33156136
8190.00   0.33233261
8192.00   0.33737746
8194.00   0.32063410
8196.00   0.27758163
8198.00   0.24972354
8200.00   0.22976902
8202.00   0.21727999
8204.00   0.21576862
8206.00   0.22285938
8208.00   0.22073933
8210.00   0.21496712
8212.00   0.20790450
8214.00   0.19521880
8216.00   0.18689328
8218.00   0.18604700
8220.00   0.18983394
8222.00   0.19641125
8224.00   0.21349961
8226.00   0.21200080
8228.00   0.19429025
8230.00   0.17925951
8232.00   0.16581497
8234.00   0.15541692
8236.00   0.15474740
8238.00   0.16401616
8240.00   0.16235691
8242.00   0.15339474
8244.00   0.14669211
8246.00   0.14065146
8248.00   0.13590625
8250.00   0.13407438
8252.00   0.13450928
8254.00   0.13161136
8256.00   0.12504821
8258.00   0.12217082
8260.00   0.12224091
8262.00   0.12267423
8264.00   0.12263565
8266.00   0.12264694
8268.00   0.12250784
8270.00   0.12193962
8272.00   0.12222774
8274.00   0.12466642
8276.00   0.12450878
8278.00   0.12019167
8280.00   0.11423996
8282.00   0.10950106
8284.00   0.10283932
8286.00   0.10488193
8288.00   0.11830228
8290.00   0.12491086
8292.00   0.12138918
8294.00   0.11883046
8296.00   0.12840249
8298.00   0.14664041
8300.00   0.15189821
8302.00   0.14753358
8304.00   0.14590156
8306.00   0.14373703
8308.00   0.14306042
8310.00   0.14548309
8312.00   0.14996248
8314.00   0.15424556
8316.00   0.15900086
8318.00   0.16468538
8320.00   0.17315945
8322.00   0.17896262
8324.00   0.17914979
8326.00   0.17764159
8328.00   0.18206915
8330.00   0.19209924
8332.00   0.19598234
8334.00   0.19528461
8336.00   0.19605435
8338.00   0.19744256
8340.00   0.20064510
8342.00   0.21008645
8344.00   0.22737870
8346.00   0.22412625
8348.00   0.19846563
8350.00   0.18516497
8352.00   0.18276839
8354.00   0.18148835
8356.00   0.17394906
8358.00   0.16393408
8360.00   0.16918428
8362.00   0.19446056
8364.00   0.20371914
8366.00   0.20281656
8368.00   0.20032497
8370.00   0.19816902
8372.00   0.19533010
8374.00   0.19426735
8376.00   0.19468470
8378.00   0.19416304
8380.00   0.19338071
8382.00   0.19248489
8384.00   0.19067261
8386.00   0.18947387
8388.00   0.19135676
8390.00   0.19520472
8392.00   0.20158617
8394.00   0.21570015
8396.00   0.22108911
8398.00   0.21546286
8400.00   0.20837849
8402.00   0.20676483
8404.00   0.20727494
8406.00   0.21058984
8408.00   0.22011989
8410.00   0.22408985
8412.00   0.22364242
8414.00   0.22239424
8416.00   0.22109164
8418.00   0.21958116
8420.00   0.22148785
8422.00   0.22886434
8424.00   0.23010582
8426.00   0.22677684
8428.00   0.22407565
8430.00   0.22247581
8432.00   0.22174630
8434.00   0.22332367
8436.00   0.22714935
8438.00   0.23074487
8440.00   0.23433304
8442.00   0.23955095
8444.00   0.24655311
8446.00   0.25476682
8448.00   0.26396447
8450.00   0.27451533
8452.00   0.28380790
8454.00   0.29454544
8456.00   0.30089304
8458.00   0.30198851
8460.00   0.30250725
8462.00   0.30533090
8464.00   0.30883288
8466.00   0.31037936
8468.00   0.30949569
8470.00   0.31085494
8472.00   0.31369033
8474.00   0.31668812
8476.00   0.31966379
8478.00   0.32266173
8480.00   0.32485199
8482.00   0.32413968
8484.00   0.33049792
8486.00   0.34448171
8488.00   0.35564074
8490.00   0.36317325
8492.00   0.36904627
8494.00   0.37360674
8496.00   0.37531805
8498.00   0.38365477
8500.00   0.39812437
8502.00   0.41082072
8504.00   0.42454898
8506.00   0.43530735
8508.00   0.43767658
8510.00   0.43384701
8512.00   0.44100583
8514.00   0.45988664
8516.00   0.46888024
8518.00   0.47080925
8520.00   0.47153312
8522.00   0.47250566
8524.00   0.47306585
8526.00   0.47573668
8528.00   0.47927371
8530.00   0.48482576
8532.00   0.49327981
8534.00   0.50115848
8536.00   0.50888216
8538.00   0.51545680
8540.00   0.51710135
8542.00   0.51146513
8544.00   0.51926851
8546.00   0.54002863
8548.00   0.55551273
8550.00   0.56588095
8552.00   0.57451683
8554.00   0.58366758
8556.00   0.59274954
8558.00   0.59603274
8560.00   0.59330994
8562.00   0.59135497
8564.00   0.58716077
8566.00   0.58489120
8568.00   0.58769691
8570.00   0.59346604
8572.00   0.59627479
8574.00   0.59584183
8576.00   0.60023475
8578.00   0.61060423
8580.00   0.61751658
8582.00   0.61890745
8584.00   0.61666512
8586.00   0.61012363
8588.00   0.59125239
8590.00   0.59696621
8592.00   0.62937254
8594.00   0.64878249
8596.00   0.65190983
8598.00   0.64911544
8600.00   0.64679873
8602.00   0.64048028
8604.00   0.64368469
8606.00   0.65717053
8608.00   0.66479379
8610.00   0.66806215
8612.00   0.66949958
8614.00   0.67164272
8616.00   0.67321205
8618.00   0.66267425
8620.00   0.63229072
8622.00   0.62081063
8624.00   0.62307972
8626.00   0.62691927
8628.00   0.63023680
8630.00   0.63353938
8632.00   0.62965077
8634.00   0.61741859
8636.00   0.61166948
8638.00   0.60386819
8640.00   0.60567081
8642.00   0.62192136
8644.00   0.64362872
8646.00   0.65915304
8648.00   0.67435235
8650.00   0.68300474
8652.00   0.68669307
8654.00   0.68662637
8656.00   0.68236130
8658.00   0.67458743
8660.00   0.66275513
8662.00   0.64649653
8664.00   0.63728094
8666.00   0.62857145
8668.00   0.62898946
8670.00   0.64386886
8672.00   0.65481865
8674.00   0.65083241
8676.00   0.64008087
8678.00   0.64112628
8680.00   0.64897025
8682.00   0.65768027
8684.00   0.67134959
8686.00   0.68346167
8688.00   0.69416910
8690.00   0.70247287
8692.00   0.70348817
8694.00   0.69686860
8696.00   0.69365019
8698.00   0.69147104
8700.00   0.68713570
8702.00   0.67796504
8704.00   0.67014694
8706.00   0.67064935
8708.00   0.67700303
8710.00   0.68293113
8712.00   0.69793779
8714.00   0.69848722
8716.00   0.68125707
8718.00   0.66467279
8720.00   0.65842062
8722.00   0.65730101
8724.00   0.66266221
8726.00   0.67951471
8728.00   0.68956828
8730.00   0.69809306
8732.00   0.70408231
8734.00   0.70762426
8736.00   0.70836258
8738.00   0.70433104
8740.00   0.69409686
8742.00   0.68666196
8744.00   0.67744011
8746.00   0.67179263
8748.00   0.67276645
8750.00   0.67413861
8752.00   0.66683090
8754.00   0.65198505
8756.00   0.64794588
8758.00   0.64855194
8760.00   0.65461844
8762.00   0.67418259
8764.00   0.68823826
8766.00   0.67831588
8768.00   0.65247750
8770.00   0.64703816
8772.00   0.65318882
8774.00   0.65915066
8776.00   0.67154527
8778.00   0.68031657
8780.00   0.67801005
8782.00   0.67155343
8784.00   0.68030989
8786.00   0.70606053
8788.00   0.71645993
8790.00   0.72238630
8792.00   0.72037584
8794.00   0.70565051
8796.00   0.68660784
8798.00   0.67792225
8800.00   0.67365617
8802.00   0.67384237
8804.00   0.68487030
8806.00   0.68740964
8808.00   0.67887783
8810.00   0.66889012
8812.00   0.66476256
8814.00   0.66284573
8816.00   0.66659528
8818.00   0.67689884
8820.00   0.68723494
8822.00   0.70599025
8824.00   0.71541256
8826.00   0.70327657
8828.00   0.67760336
8830.00   0.65875351
8832.00   0.62767190
8834.00   0.62408751
8836.00   0.65257365
8838.00   0.66975242
8840.00   0.66068214
8842.00   0.64269745
8844.00   0.63978958
8846.00   0.64457464
8848.00   0.64850950
8850.00   0.65495241
8852.00   0.66175538
8854.00   0.66880870
8856.00   0.67652816
8858.00   0.68618536
8860.00   0.69902813
8862.00   0.70078123
8864.00   0.69212884
8866.00   0.68545312
8868.00   0.68061709
8870.00   0.67327058
8872.00   0.65842432
8874.00   0.63857949
8876.00   0.63376391
8878.00   0.64214605
8880.00   0.64687043
8882.00   0.65502328
8884.00   0.65903753
8886.00   0.65652460
8888.00   0.64911425
8890.00   0.63609171
8892.00   0.61093777
8894.00   0.59981084
8896.00   0.59758037
8898.00   0.59635365
8900.00   0.59503978
8902.00   0.59555179
8904.00   0.59963489
8906.00   0.60777730
8908.00   0.61279887
8910.00   0.62057996
8912.00   0.62012160
8914.00   0.61180496
8916.00   0.59762919
8918.00   0.57571000
8920.00   0.54543990
8922.00   0.53380364
8924.00   0.53620589
8926.00   0.53807712
8928.00   0.54490113
8930.00   0.55071354
8932.00   0.54979587
8934.00   0.54696018
8936.00   0.55915004
8938.00   0.59649169
8940.00   0.60313267
8942.00   0.58856314
8944.00   0.57228869
8946.00   0.55381840
8948.00   0.53622723
8950.00   0.53439343
8952.00   0.54923868
8954.00   0.54791605
8956.00   0.53758776
8958.00   0.52735430
8960.00   0.51743883
8962.00   0.50605333
8964.00   0.49183872
8966.00   0.47491318
8968.00   0.45998216
8970.00   0.44176900
8972.00   0.43206680
8974.00   0.43101838
8976.00   0.43314093
8978.00   0.43542248
8980.00   0.43952012
8982.00   0.44681832
8984.00   0.46462187
8986.00   0.46695656
8988.00   0.45628896
8990.00   0.44467485
8992.00   0.43195963
8994.00   0.42054981
8996.00   0.42536828
8998.00   0.45009214
9000.00   0.45620489
9002.00   0.45078796
9004.00   0.44733813
9006.00   0.44546008
9008.00   0.44550145
9010.00   0.45151907
9012.00   0.46449900
9014.00   0.46619025
9016.00   0.45849019
9018.00   0.45366892
9020.00   0.45049277
9022.00   0.44793364
9024.00   0.44541517
9026.00   0.44310752
9028.00   0.44475925
9030.00   0.45559394
9032.00   0.45436835
9034.00   0.43904489
9036.00   0.42782763
9038.00   0.42801225
9040.00   0.43444902
9042.00   0.44329628
9044.00   0.46297121
9046.00   0.46808115
9048.00   0.46473306
9050.00   0.45707351
9052.00   0.44208866
9054.00   0.42550686
9056.00   0.41951594
9058.00   0.42035490
9060.00   0.42186406
9062.00   0.43009964
9064.00   0.43262106
9066.00   0.42694011
9068.00   0.42103508
9070.00   0.42318878
9072.00   0.43096519
9074.00   0.42730188
9076.00   0.40897295
9078.00   0.40445957
9080.00   0.41288793
9082.00   0.42241544
9084.00   0.42799142
9086.00   0.43239000
9088.00   0.43381163
9090.00   0.42495117
9092.00   0.43256417
9094.00   0.46137020
9096.00   0.47772014
9098.00   0.46986419
9100.00   0.45141715
9102.00   0.44105482
9104.00   0.43000004
9106.00   0.42505932
9108.00   0.42596787
9110.00   0.42734194
9112.00   0.43142214
9114.00   0.43406385
9116.00   0.42718518
9118.00   0.41063008
9120.00   0.41328543
9122.00   0.43387735
9124.00   0.44702467
9126.00   0.45933127
9128.00   0.46456051
9130.00   0.45425126
9132.00   0.43264413
9134.00   0.42540839
9136.00   0.42726842
9138.00   0.42630354
9140.00   0.42431360
9142.00   0.42443717
9144.00   0.42973644
9146.00   0.43665603
9148.00   0.43447822
9150.00   0.42084342
9152.00   0.42023686
9154.00   0.42995667
9156.00   0.43660861
9158.00   0.43776530
9160.00   0.43773484
9162.00   0.44099736
9164.00   0.44710097
9166.00   0.44777870
9168.00   0.44724351
9170.00   0.44064805
9172.00   0.42413831
9174.00   0.40770209
9176.00   0.39945334
9178.00   0.39546385
9180.00   0.39689738
9182.00   0.41131458
9184.00   0.41301769
9186.00   0.40071100
9188.00   0.39181361
9190.00   0.39392719
9192.00   0.40228105
9194.00   0.41446283
9196.00   0.44254014
9198.00   0.44812518
9200.00   0.43766513
9202.00   0.42475876
9204.00   0.40817294
9206.00   0.39158830
9208.00   0.38862199
9210.00   0.39784405
9212.00   0.40023801
9214.00   0.39740780
9216.00   0.40219328
9218.00   0.41799989
9220.00   0.43574658
9222.00   0.44719973
9224.00   0.45652437
9226.00   0.45904547
9228.00   0.45376179
9230.00   0.44870058
9232.00   0.44271597
9234.00   0.43513077
9236.00   0.42465419
9238.00   0.41216081
9240.00   0.40557805
9242.00   0.40183613
9244.00   0.40188974
9246.00   0.40982428
9248.00   0.41394958
9250.00   0.41092476
9252.00   0.40352568
9254.00   0.39253452
9256.00   0.37197021
9258.00   0.36517164
9260.00   0.37041810
9262.00   0.37207851
9264.00   0.36804551
9266.00   0.36295971
9268.00   0.35981795
9270.00   0.35533461
9272.00   0.36307192
9274.00   0.38900977
9276.00   0.40119749
9278.00   0.40062341
9280.00   0.39508492
9282.00   0.38672799
9284.00   0.37393630
9286.00   0.37439349
9288.00   0.38787296
9290.00   0.39539617
9292.00   0.40208581
9294.00   0.40611783
9296.00   0.40546894
9298.00   0.40210214
9300.00   0.40232316
9302.00   0.41101900
9304.00   0.40212390
9306.00   0.36777142
9308.00   0.35211337
9310.00   0.36521164
9312.00   0.39211965
9314.00   0.42170197
9316.00   0.47648543
9318.00   0.46118483
9320.00   0.35920769
9322.00   0.31097049
9324.00   0.32577300
9326.00   0.35522085
9328.00   0.36400741
9330.00   0.36806878
9332.00   0.37115756
9334.00   0.36957550
9336.00   0.37115008
9338.00   0.37531510
9340.00   0.37964523
9342.00   0.38364568
9344.00   0.38741729
9346.00   0.38740823
9348.00   0.38072455
9350.00   0.38136500
9352.00   0.39291769
9354.00   0.39474422
9356.00   0.37686861
9358.00   0.35200703
9360.00   0.34293547
9362.00   0.34166792
9364.00   0.34450114
9366.00   0.35189652
9368.00   0.36584693
9370.00   0.39592516
9372.00   0.42229256
9374.00   0.41986415
9376.00   0.39892432
9378.00   0.36415428
9380.00   0.28521115
9382.00   0.25219256
9384.00   0.26881230
9386.00   0.29253128
9388.00   0.29576641
9390.00   0.29257062
9392.00   0.30563784
9394.00   0.33512101
9396.00   0.35460910
9398.00   0.37279850
9400.00   0.38413680
9402.00   0.38573641
9404.00   0.38024935
9406.00   0.37204382
9408.00   0.35332471
9410.00   0.34774509
9412.00   0.34805003
9414.00   0.35461384
9416.00   0.37538126
9418.00   0.39534175
9420.00   0.38632485
9422.00   0.34870249
9424.00   0.34873208
9426.00   0.37290195
9428.00   0.39821288
9430.00   0.43442047
9432.00   0.46533108
9434.00   0.47530547
9436.00   0.47171482
9438.00   0.45567498
9440.00   0.41331008
9442.00   0.38822439
9444.00   0.37023529
9446.00   0.36143064
9448.00   0.36539778
9450.00   0.37906054
9452.00   0.39080665
9454.00   0.42466050
9456.00   0.41275969
9458.00   0.34428182
9460.00   0.30501133
9462.00   0.31988657
9464.00   0.35658112
9466.00   0.37494358
9468.00   0.38534558
9470.00   0.41411623
9472.00   0.47464216
9474.00   0.50265449
9476.00   0.49142227
9478.00   0.46428227
9480.00   0.43629196
9482.00   0.39606288
9484.00   0.38788760
9486.00   0.41426614
9488.00   0.42127347
9490.00   0.41118640
9492.00   0.40170196
9494.00   0.40277758
9496.00   0.40886661
9498.00   0.41101769
9500.00   0.40506366
9502.00   0.41535261
9504.00   0.44869387
9506.00   0.46931654
9508.00   0.46614391
9510.00   0.44890735
9512.00   0.42407912
9514.00   0.37445229
9516.00   0.36043686
9518.00   0.36969900
9520.00   0.38468975
9522.00   0.41018072
9524.00   0.43725336
9526.00   0.44999647
9528.00   0.45536733
9530.00   0.45179611
9532.00   0.43340826
9534.00   0.41991210
9536.00   0.40777263
9538.00   0.39902285
9540.00   0.39533299
9542.00   0.39562562
9544.00   0.40774474
9546.00   0.44206539
9548.00   0.45598748
9550.00   0.45709276
9552.00   0.45139781
9554.00   0.43507287
9556.00   0.41378641
9558.00   0.41786352
9560.00   0.45155373
9562.00   0.45929164
9564.00   0.45210326
9566.00   0.44561681
9568.00   0.44464085
9570.00   0.44167998
9572.00   0.42561343
9574.00   0.39484829
9576.00   0.38138863
9578.00   0.37171438
9580.00   0.37629262
9582.00   0.40606987
9584.00   0.43493468
9586.00   0.43552718
9588.00   0.41806042
9590.00   0.41116011
9592.00   0.40899312
9594.00   0.39976531
9596.00   0.37631515
9598.00   0.36227801
9600.00   0.37419575
9602.00   0.40119103
9604.00   0.41252124
9606.00   0.42808408
9608.00   0.41775462
9610.00   0.36835498
9612.00   0.33915901
9614.00   0.35367259
9616.00   0.38375312
9618.00   0.38481441
9620.00   0.36960748
9622.00   0.35801113
9624.00   0.33803117
9626.00   0.32697198
9628.00   0.32682014
9630.00   0.33206925
9632.00   0.33877596
9634.00   0.34963486
9636.00   0.35696951
9638.00   0.36580798
9640.00   0.36822972
9642.00   0.36223727
9644.00   0.35553837
9646.00   0.35650903
9648.00   0.36102441
9650.00   0.34154293
9652.00   0.28344569
9654.00   0.26634708
9656.00   0.28281161
9658.00   0.30001837
9660.00   0.30723503
9662.00   0.31245252
9664.00   0.31993556
9666.00   0.33298668
9668.00   0.33286026
9670.00   0.31602195
9672.00   0.30874020
9674.00   0.31757054
9676.00   0.33079651
9678.00   0.33547276
9680.00   0.33813986
9682.00   0.33174029
9684.00   0.30719125
9686.00   0.29906160
9688.00   0.31166834
9690.00   0.32645202
9692.00   0.33009651
9694.00   0.32912233
9696.00   0.32015011
9698.00   0.29478112
9700.00   0.28380927
9702.00   0.28123847
9704.00   0.28554770
9706.00   0.30046946
9708.00   0.32198930
9710.00   0.32726219
9712.00   0.31567463
9714.00   0.31753159
9716.00   0.32717943
9718.00   0.33547792
9720.00   0.34140351
9722.00   0.34560555
9724.00   0.34649718
9726.00   0.34669369
9728.00   0.33668602
9730.00   0.30530801
9732.00   0.29461667
9734.00   0.30661610
9736.00   0.33123055
9738.00   0.36628601
9740.00   0.41830772
9742.00   0.43502295
9744.00   0.40125555
9746.00   0.41922641
9748.00   0.51667166
9750.00   0.58201563
9752.00   0.53484190
9754.00   0.42097652
9756.00   0.36920747
9758.00   0.33180189
9760.00   0.31728640
9762.00   0.33812693
9764.00   0.35469279
9766.00   0.35214278
9768.00   0.34491611
9770.00   0.35329819
9772.00   0.37862268
9774.00   0.38394278
9776.00   0.37412697
9778.00   0.36765230
9780.00   0.36939850
9782.00   0.36925346
9784.00   0.35417479
9786.00   0.32544658
9788.00   0.31116402
9790.00   0.29824421
9792.00   0.29923981
9794.00   0.31677517
9796.00   0.34083438
9798.00   0.36878124
9800.00   0.40315297
9802.00   0.40670812
9804.00   0.37411860
9806.00   0.36422634
9808.00   0.36672980
9810.00   0.37297195
9812.00   0.38233387
9814.00   0.39406317
9816.00   0.39734274
9818.00   0.39545006
9820.00   0.39088383
9822.00   0.37693235
9824.00   0.37042409
9826.00   0.37409949
9828.00   0.38430497
9830.00   0.40015247
9832.00   0.42689830
9834.00   0.43883857
9836.00   0.44188592
9838.00   0.44254240
9840.00   0.43840495
9842.00   0.43347946
9844.00   0.43299431
9846.00   0.43517813
9848.00   0.43247929
9850.00   0.42743650
9852.00   0.41996327
9854.00   0.40949297
9856.00   0.39748079
9858.00   0.38672444
9860.00   0.37500575
9862.00   0.34916785
9864.00   0.26840633
9866.00   0.28571445
9868.00   0.40627798
9870.00   0.49828732
9872.00   0.53338331
9874.00   0.53589725
9876.00   0.50175416
9878.00   0.39676812
9880.00   0.37807620
9882.00   0.42440888
9884.00   0.45635223
9886.00   0.46875906
9888.00   0.47858742
9890.00   0.49764401
9892.00   0.52381325
9894.00   0.53388929
9896.00   0.54243362
9898.00   0.52749610
9900.00   0.47296298
9902.00   0.42534438
9904.00   0.41769207
9906.00   0.43322730
9908.00   0.45028058
9910.00   0.49395081
9912.00   0.50621027
9914.00   0.49173006
9916.00   0.47630697
9918.00   0.46755865
9920.00   0.46036786
9922.00   0.45583045
9924.00   0.45223129
9926.00   0.45456189
9928.00   0.45792907
9930.00   0.47203246
9932.00   0.51259297
9934.00   0.55024493
9936.00   0.53364176
9938.00   0.46833113
9940.00   0.44546816
9942.00   0.43756813
9944.00   0.44022942
9946.00   0.46484020
9948.00   0.48677444
9950.00   0.47794706
9952.00   0.44804862
9954.00   0.45838419
9956.00   0.51520312
9958.00   0.53170413
9960.00   0.51801312
9962.00   0.49552220
9964.00   0.46682674
9966.00   0.43283495
9968.00   0.42553207
9970.00   0.44052395
9972.00   0.45339426
9974.00   0.48010218
9976.00   0.49632838
9978.00   0.49130735
9980.00   0.48034319
9982.00   0.48911047
9984.00   0.51315606
9986.00   0.52542579
9988.00   0.54257101
9990.00   0.54002488
9992.00   0.50363308
9994.00   0.46679559
9996.00   0.46715117
9998.00   0.49183065
10000.00   0.50457865
10002.00   0.52044368
10004.00   0.52951109
10006.00   0.53408808
10008.00   0.53278506
10010.00   0.52342290
10012.00   0.50731713
10014.00   0.49195224
10016.00   0.48153701
10018.00   0.45332390
10020.00   0.39052019
10022.00   0.35448727
10024.00   0.37363380
10026.00   0.41775036
10028.00   0.43252656
10030.00   0.43610144
10032.00   0.43859363
10034.00   0.42333442
10036.00   0.42974064
10038.00   0.47325259
10040.00   0.52249813
10042.00   0.53857160
10044.00   0.53661269
10046.00   0.52503347
10048.00   0.48076311
10050.00   0.46669453
10052.00   0.48839873
10054.00   0.51344109
10056.00   0.52183396
10058.00   0.52383345
10060.00   0.50688195
10062.00   0.45920026
10064.00   0.43317267
10066.00   0.41876197
10068.00   0.41059500
10070.00   0.40165752
10072.00   0.39953145
10074.00   0.43479660
10076.00   0.54075021
10078.00   0.55726475
10080.00   0.49139619
10082.00   0.45772108
10084.00   0.48512331
10086.00   0.53065795
10088.00   0.54666328
10090.00   0.55551583
10092.00   0.54057056
10094.00   0.48409140
10096.00   0.45528200
10098.00   0.46579430
10100.00   0.47672486
10102.00   0.45112267
10104.00   0.40168518
10106.00   0.37891823
10108.00   0.36054188
10110.00   0.36408082
10112.00   0.39823791
10114.00   0.43283242
10116.00   0.45881695
10118.00   0.47945777
10120.00   0.45628840
10122.00   0.34857312
10124.00   0.33927897
10126.00   0.42578125
10128.00   0.47492376
10130.00   0.42998484
10132.00   0.35978964
10134.00   0.38189283
10136.00   0.47655833
10138.00   0.53107560
10140.00   0.61528271
10142.00   0.62569642
10144.00   0.51202840
10146.00   0.38536802
10148.00   0.38390821
10150.00   0.46812990
10152.00   0.48201641
10154.00   0.45728961
10156.00   0.45300046
10158.00   0.46677229
10160.00   0.48254669
10162.00   0.49490592
10164.00   0.50680977
10166.00   0.49515146
10168.00   0.44539601
10170.00   0.43174580
10172.00   0.45288584
10174.00   0.46365663
10176.00   0.43727311
10178.00   0.40051156
10180.00   0.41779077
10182.00   0.50554544
10184.00   0.50949025
10186.00   0.43999377
10188.00   0.40013880
10190.00   0.41883394
10192.00   0.44462690
10194.00   0.40857935
10196.00   0.31590089
10198.00   0.30138242
10200.00   0.31633887
10202.00   0.37884957
10204.00   0.56200516
10206.00   0.69625878
10208.00   0.59876639
10210.00   0.33520716
10212.00   0.25420350
10214.00   0.29102552
10216.00   0.27591890
10218.00   0.22102849
10220.00   0.18736826
10222.00   0.20797890
10224.00   0.25929645
10226.00   0.29058197
10228.00   0.32286829
10230.00   0.34690651
10232.00   0.34940222
10234.00   0.37482968
10236.00   0.45921165
10238.00   0.54708427
10240.00   0.52542722
10242.00   0.39902711
10244.00   0.35688794
10246.00   0.35003239
10248.00   0.34963819
10250.00   0.36618161
10252.00   0.38131982
10254.00   0.36609381
10256.00   0.32682022
10258.00   0.32430625
10260.00   0.37018541
10262.00   0.36469626
10264.00   0.30148625
10266.00   0.23846525
10268.00   0.20720886
10270.00   0.19076049
10272.00   0.18554009
10274.00   0.18123761
10276.00   0.21634045
10278.00   0.32913309
10280.00   0.38938332
10282.00   0.33143342
10284.00   0.22687353
10286.00   0.21620977
10288.00   0.27604410
10290.00   0.28468889
10292.00   0.26897153
10294.00   0.25833237
10296.00   0.23991759
10298.00   0.23831488
10300.00   0.31342602
10302.00   0.48521495
10304.00   0.45566753
10306.00   0.20509291
10308.00   0.08924922
10310.00   0.09685552
10312.00   0.14449298
10314.00   0.19919446
10316.00   0.28074399
10318.00   0.28654152
10320.00   0.21938831
10322.00   0.18418700
10324.00   0.12958549
10326.00   0.12602006
10328.00   0.23916921
10330.00   0.40611002
10332.00   0.42323580
10334.00   0.29408106
10336.00   0.27398777
10338.00   0.30986553
10340.00   0.33705053
10342.00   0.32603881
10344.00   0.32451430
10346.00   0.42074755
10348.00   0.64761066
10350.00   0.64867967
10352.00   0.45481297
10354.00   0.30989435
10356.00   0.15637231
10358.00   0.07368945
10360.00   0.20654057
10362.00   0.52879274
10364.00   0.56753731
10366.00   0.36790249
10368.00   0.28739575
10370.00   0.27494666
10372.00   0.28521225
10374.00   0.31838375
10376.00   0.36972010
10378.00   0.33982477
10380.00   0.21499527
10382.00   0.16004549
10384.00   0.13027793
10386.00   0.12168982
10388.00   0.14333646
10390.00   0.18042968
10392.00   0.19418152
10394.00   0.20694633
10396.00   0.18653180
10398.00   0.09108809
10400.00   0.07256275
10402.00   0.18359213
10404.00   0.30489081
10406.00   0.29300857
10408.00   0.18704560
10410.00   0.16230750
10412.00   0.14491469
10414.00   0.18795295
10416.00   0.35723588
10418.00   0.47679767
10420.00   0.39226785
10422.00   0.17984636
10424.00   0.13401309
10426.00   0.15679716
10428.00   0.23581208
10430.00   0.46117470
10432.00   0.60306495
10434.00   0.55760497
10436.00   0.41543290
10438.00   0.31919879
10440.00   0.17409441
10442.00   0.13855690
10444.00   0.22388901
10446.00   0.26160252
10448.00   0.21136642
10450.00   0.14384519
10452.00   0.13751812
10454.00   0.15914720
10456.00   0.21428652
10458.00   0.35419926
10460.00   0.41720575
10462.00   0.41117862
10464.00   0.35851911
10466.00   0.24155967
10468.00   0.05341867
10470.00   0.04430070
10472.00   0.20533413
10474.00   0.29362804
10476.00   0.37137240
10478.00   0.41152164
10480.00   0.38788521
10482.00   0.32057601
10484.00   0.26990810
10486.00   0.19155858
10488.00   0.16221085
10490.00   0.16595271
10492.00   0.18421285
10494.00   0.21806060
10496.00   0.26340309
10498.00   0.30988973
10500.00   0.39512777
10502.00   0.36024213
10504.00   0.18831819
10506.00   0.07630483
10508.00   0.01352984
10510.00   -0.00348275
10512.00   0.05020429
10514.00   0.17153466
10516.00   0.28668940
10518.00   0.47517624
10520.00   0.56254107
10522.00   0.56139988
10524.00   0.51488513
10526.00   0.42484784
10528.00   0.29261851
10530.00   0.24784255
10532.00   0.27808720
10534.00   0.27365062
10536.00   0.25430781
10538.00   0.24468787
10540.00   0.25841090
10542.00   0.27999291
10544.00   0.27674949
10546.00   0.26486963
10548.00   0.22895588
10550.00   0.14328115
10552.00   0.09593625
10554.00   0.10179048
10556.00   0.12979372
10558.00   0.15558147
10560.00   0.20116512
10562.00   0.18943737
10564.00   0.10522042
10566.00   0.07160009
10568.00   0.09407260
10570.00   0.12223115
10572.00   0.11630481
10574.00   0.09342237
10576.00   0.11963414
10578.00   0.21001332
10580.00   0.24208419
10582.00   0.22164105
10584.00   0.20663843
10586.00   0.22957671
10588.00   0.26334018
10590.00   0.24426621
10592.00   0.14489236
10594.00   0.14722136
10596.00   0.23821807
10598.00   0.30201241
10600.00   0.31765711
10602.00   0.31327546
10604.00   0.30749744
10606.00   0.28818309
10608.00   0.27947628
10610.00   0.26121879
10612.00   0.27131966
10614.00   0.33312783
10616.00   0.38839692
10618.00   0.37625548
10620.00   0.31877178
10622.00   0.28342986
10624.00   0.22175127
10626.00   0.21687898
10628.00   0.28317139
10630.00   0.34493935
10632.00   0.35863265
10634.00   0.35056552
10636.00   0.36171040
10638.00   0.40907174
10640.00   0.38660195
10642.00   0.27476978
10644.00   0.20783187
10646.00   0.23782854
10648.00   0.30430505
10650.00   0.31320751
10652.00   0.28940666
10654.00   0.28281757
10656.00   0.27071854
10658.00   0.27483603
10660.00   0.30241165
10662.00   0.33703169
10664.00   0.36569858
10666.00   0.40316114
10668.00   0.37987974
10670.00   0.28514731
10672.00   0.22272640
10674.00   0.16824685
10676.00   0.14188521
10678.00   0.17663994
10680.00   0.25684813
10682.00   0.26507816
10684.00   0.20451938
10686.00   0.19817732
10688.00   0.24059811
10690.00   0.26602614
10692.00   0.23721290
10694.00   0.19048209
10696.00   0.21000676
10698.00   0.30675930
10700.00   0.32001281
10702.00   0.27638116
10704.00   0.23788404
10706.00   0.20615196
10708.00   0.18010917
10710.00   0.17191909
10712.00   0.17435338
10714.00   0.20027946
10716.00   0.28624162
10718.00   0.30842477
10720.00   0.24592413
10722.00   0.17635053
10724.00   0.16323756
10726.00   0.17899434
10728.00   0.18418171
10730.00   0.18303213
10732.00   0.20466198
10734.00   0.25914937
10736.00   0.30524784
10738.00   0.32962087
10740.00   0.33816600
10742.00   0.30351308
10744.00   0.18675473
10746.00   0.15340127
10748.00   0.17396748
10750.00   0.19497372
10752.00   0.21175984
10754.00   0.22550157
10756.00   0.21463296
10758.00   0.16490352
10760.00   0.18374623
10762.00   0.27375141
10764.00   0.32814181
10766.00   0.35056052
10768.00   0.34723181
10770.00   0.30585295
10772.00   0.22260167
10774.00   0.18229613
10776.00   0.15854551
10778.00   0.14681895
10780.00   0.14607042
10782.00   0.16075383
10784.00   0.20662440
10786.00   0.27368504
10788.00   0.26761684
10790.00   0.17863730
10792.00   0.14909063
10794.00   0.14158562
10796.00   0.15588780
10798.00   0.21434401
10800.00   0.28472579
10802.00   0.26510611
10804.00   0.15040109
10806.00   0.11757661
10808.00   0.10185612
10810.00   0.13518019
10812.00   0.26113138
10814.00   0.39367387
10816.00   0.40437156
10818.00   0.32821423
10820.00   0.28957680
10822.00   0.23448910
10824.00   0.20645358
10826.00   0.20926340
10828.00   0.22090931
10830.00   0.23132460
10832.00   0.24691808
10834.00   0.22753341
10836.00   0.15015173
10838.00   0.13432409
10840.00   0.16614142
